Model,DPO3034
Firmware Version,2.07

Point Format,Y
Horizontal Units,S
Horizontal Scale,200
Sample Interval,0.2
Record Length,10000
Gating,0.0% to 100.0%
Probe Attenuation,10
Vertical Units,V
Vertical Offset,0
Vertical Scale,2
Label,
TIME,CH1
-1.000e+03,4.24844
-9.998e+02,4.24781
-9.996e+02,4.24781
-9.994e+02,4.24688
-9.992e+02,4.2475
-9.990e+02,4.24875
-9.988e+02,4.24906
-9.986e+02,4.24875
-9.984e+02,4.24875
-9.982e+02,4.24875
-9.980e+02,4.24875
-9.978e+02,4.24781
-9.976e+02,4.24844
-9.974e+02,4.24844
-9.972e+02,4.24844
-9.970e+02,4.25
-9.968e+02,4.24969
-9.966e+02,4.25
-9.964e+02,4.24906
-9.962e+02,4.24906
-9.960e+02,4.24875
-9.958e+02,4.24969
-9.956e+02,4.24906
-9.954e+02,4.24906
-9.952e+02,4.24812
-9.950e+02,4.24844
-9.948e+02,4.24875
-9.946e+02,4.24844
-9.944e+02,4.24844
-9.942e+02,4.24812
-9.940e+02,4.24656
-9.938e+02,4.24688
-9.936e+02,4.24844
-9.934e+02,4.24906
-9.932e+02,4.24781
-9.930e+02,4.24844
-9.928e+02,4.24781
-9.926e+02,4.24812
-9.924e+02,4.24906
-9.922e+02,4.24937
-9.920e+02,4.24937
-9.918e+02,4.24844
-9.916e+02,4.2475
-9.914e+02,4.24688
-9.912e+02,4.24688
-9.910e+02,4.2475
-9.908e+02,4.24688
-9.906e+02,4.24625
-9.904e+02,4.24625
-9.902e+02,4.24844
-9.900e+02,4.24688
-9.898e+02,4.24688
-9.896e+02,4.24812
-9.894e+02,4.2475
-9.892e+02,4.24812
-9.890e+02,4.24688
-9.888e+02,4.24656
-9.886e+02,4.24781
-9.884e+02,4.2475
-9.882e+02,4.24563
-9.880e+02,4.24625
-9.878e+02,4.24594
-9.876e+02,4.24625
-9.874e+02,4.24594
-9.872e+02,4.175
-9.870e+02,4.1425
-9.868e+02,4.12938
-9.866e+02,4.12875
-9.864e+02,4.12875
-9.862e+02,4.12938
-9.860e+02,4.13063
-9.858e+02,4.13094
-9.856e+02,4.12969
-9.854e+02,4.12938
-9.852e+02,4.12969
-9.850e+02,4.12969
-9.848e+02,4.12906
-9.846e+02,4.12969
-9.844e+02,4.12938
-9.842e+02,4.12875
-9.840e+02,4.12875
-9.838e+02,4.12875
-9.836e+02,4.12875
-9.834e+02,4.12781
-9.832e+02,4.12656
-9.830e+02,4.12594
-9.828e+02,4.12344
-9.826e+02,4.12344
-9.824e+02,4.12406
-9.822e+02,4.12375
-9.820e+02,4.1225
-9.818e+02,4.12281
-9.816e+02,4.12312
-9.814e+02,4.12312
-9.812e+02,4.12312
-9.810e+02,4.12188
-9.808e+02,4.12125
-9.806e+02,4.12063
-9.804e+02,4.12031
-9.802e+02,4.11937
-9.800e+02,4.11844
-9.798e+02,4.11844
-9.796e+02,4.11875
-9.794e+02,4.11906
-9.792e+02,4.11813
-9.790e+02,4.11719
-9.788e+02,4.11719
-9.786e+02,4.1175
-9.784e+02,4.11625
-9.782e+02,4.1175
-9.780e+02,4.11656
-9.778e+02,4.115
-9.776e+02,4.11375
-9.774e+02,4.11375
-9.772e+02,4.11375
-9.770e+02,4.11531
-9.768e+02,4.11469
-9.766e+02,4.11406
-9.764e+02,4.11313
-9.762e+02,4.1125
-9.760e+02,4.1125
-9.758e+02,4.11125
-9.756e+02,4.11125
-9.754e+02,4.11125
-9.752e+02,4.11156
-9.750e+02,4.11125
-9.748e+02,4.11062
-9.746e+02,4.10938
-9.744e+02,4.10875
-9.742e+02,4.10844
-9.740e+02,4.10813
-9.738e+02,4.10844
-9.736e+02,4.10813
-9.734e+02,4.10781
-9.732e+02,4.10625
-9.730e+02,4.10625
-9.728e+02,4.10594
-9.726e+02,4.10656
-9.724e+02,4.10688
-9.722e+02,4.10562
-9.720e+02,4.10562
-9.718e+02,4.10562
-9.716e+02,4.10531
-9.714e+02,4.10344
-9.712e+02,4.10313
-9.710e+02,4.10344
-9.708e+02,4.1025
-9.706e+02,4.10281
-9.704e+02,4.1025
-9.702e+02,4.10313
-9.700e+02,4.10187
-9.698e+02,4.10062
-9.696e+02,4.09969
-9.694e+02,4.10031
-9.692e+02,4.10031
-9.690e+02,4.09938
-9.688e+02,4.0975
-9.686e+02,4.0975
-9.684e+02,4.09813
-9.682e+02,4.09906
-9.680e+02,4.0975
-9.678e+02,4.0975
-9.676e+02,4.09687
-9.674e+02,4.09656
-9.672e+02,4.0975
-9.670e+02,4.09813
-9.668e+02,4.09875
-9.666e+02,4.09781
-9.664e+02,4.09656
-9.662e+02,4.09656
-9.660e+02,4.09594
-9.658e+02,4.09563
-9.656e+02,4.09594
-9.654e+02,4.09563
-9.652e+02,4.09531
-9.650e+02,4.09594
-9.648e+02,4.09438
-9.646e+02,4.09406
-9.644e+02,4.09406
-9.642e+02,4.09344
-9.640e+02,4.09375
-9.638e+02,4.09219
-9.636e+02,4.09125
-9.634e+02,4.09094
-9.632e+02,4.09125
-9.630e+02,4.09156
-9.628e+02,4.09125
-9.626e+02,4.09156
-9.624e+02,4.09125
-9.622e+02,4.08938
-9.620e+02,4.08812
-9.618e+02,4.08875
-9.616e+02,4.0875
-9.614e+02,4.08688
-9.612e+02,4.08688
-9.610e+02,4.08719
-9.608e+02,4.08719
-9.606e+02,4.08812
-9.604e+02,4.08688
-9.602e+02,4.08688
-9.600e+02,4.08719
-9.598e+02,4.08594
-9.596e+02,4.08594
-9.594e+02,4.08656
-9.592e+02,4.08656
-9.590e+02,4.085
-9.588e+02,4.08469
-9.586e+02,4.08281
-9.584e+02,4.08375
-9.582e+02,4.08406
-9.580e+02,4.08375
-9.578e+02,4.08219
-9.576e+02,4.08188
-9.574e+02,4.08125
-9.572e+02,4.08125
-9.570e+02,4.08094
-9.568e+02,4.08094
-9.566e+02,4.08188
-9.564e+02,4.08094
-9.562e+02,4.08063
-9.560e+02,4.08
-9.558e+02,4.07875
-9.556e+02,4.07969
-9.554e+02,4.07969
-9.552e+02,4.07906
-9.550e+02,4.07875
-9.548e+02,4.07937
-9.546e+02,4.07937
-9.544e+02,4.07937
-9.542e+02,4.08063
-9.540e+02,4.08031
-9.538e+02,4.07906
-9.536e+02,4.07844
-9.534e+02,4.0775
-9.532e+02,4.07812
-9.530e+02,4.0775
-9.528e+02,4.0775
-9.526e+02,4.07812
-9.524e+02,4.07812
-9.522e+02,4.07812
-9.520e+02,4.07781
-9.518e+02,4.07781
-9.516e+02,4.07812
-9.514e+02,4.07688
-9.512e+02,4.075
-9.510e+02,4.07469
-9.508e+02,4.07563
-9.506e+02,4.07531
-9.504e+02,4.075
-9.502e+02,4.07469
-9.500e+02,4.075
-9.498e+02,4.07469
-9.496e+02,4.07375
-9.494e+02,4.07375
-9.492e+02,4.07344
-9.490e+02,4.07125
-9.488e+02,4.07125
-9.486e+02,4.07219
-9.484e+02,4.07125
-9.482e+02,4.07094
-9.480e+02,4.07062
-9.478e+02,4.07125
-9.476e+02,4.07125
-9.474e+02,4.07
-9.472e+02,4.07031
-9.470e+02,4.07
-9.468e+02,4.07031
-9.466e+02,4.07125
-9.464e+02,4.07156
-9.462e+02,4.07156
-9.460e+02,4.07125
-9.458e+02,4.07094
-9.456e+02,4.07062
-9.454e+02,4.07031
-9.452e+02,4.07
-9.450e+02,4.07062
-9.448e+02,4.06969
-9.446e+02,4.06937
-9.444e+02,4.06844
-9.442e+02,4.06875
-9.440e+02,4.06906
-9.438e+02,4.0675
-9.436e+02,4.06719
-9.434e+02,4.06781
-9.432e+02,4.06844
-9.430e+02,4.06688
-9.428e+02,4.06688
-9.426e+02,4.06719
-9.424e+02,4.06719
-9.422e+02,4.06813
-9.420e+02,4.06781
-9.418e+02,4.06688
-9.416e+02,4.06719
-9.414e+02,4.06719
-9.412e+02,4.06625
-9.410e+02,4.06625
-9.408e+02,4.06688
-9.406e+02,4.0675
-9.404e+02,4.06719
-9.402e+02,4.06688
-9.400e+02,4.06562
-9.398e+02,4.065
-9.396e+02,4.06469
-9.394e+02,4.06562
-9.392e+02,4.06625
-9.390e+02,4.06625
-9.388e+02,4.06531
-9.386e+02,4.06562
-9.384e+02,4.06531
-9.382e+02,4.065
-9.380e+02,4.06562
-9.378e+02,4.065
-9.376e+02,4.065
-9.374e+02,4.06531
-9.372e+02,4.06562
-9.370e+02,4.06469
-9.368e+02,4.06562
-9.366e+02,4.06344
-9.364e+02,4.065
-9.362e+02,4.06531
-9.360e+02,4.06406
-9.358e+02,4.06469
-9.356e+02,4.06469
-9.354e+02,4.06313
-9.352e+02,4.06281
-9.350e+02,4.06187
-9.348e+02,4.06219
-9.346e+02,4.06094
-9.344e+02,4.06187
-9.342e+02,4.06219
-9.340e+02,4.06156
-9.338e+02,4.06187
-9.336e+02,4.06187
-9.334e+02,4.06
-9.332e+02,4.06062
-9.330e+02,4.05969
-9.328e+02,4.05938
-9.326e+02,4.05906
-9.324e+02,4.05938
-9.322e+02,4.05906
-9.320e+02,4.05844
-9.318e+02,4.05875
-9.316e+02,4.05844
-9.314e+02,4.05906
-9.312e+02,4.05781
-9.310e+02,4.0575
-9.308e+02,4.05719
-9.306e+02,4.05719
-9.304e+02,4.05656
-9.302e+02,4.05813
-9.300e+02,4.05719
-9.298e+02,4.0575
-9.296e+02,4.05781
-9.294e+02,4.05844
-9.292e+02,4.05781
-9.290e+02,4.05719
-9.288e+02,4.05687
-9.286e+02,4.05719
-9.284e+02,4.05813
-9.282e+02,4.05781
-9.280e+02,4.0575
-9.278e+02,4.0575
-9.276e+02,4.05813
-9.274e+02,4.0575
-9.272e+02,4.05687
-9.270e+02,4.05687
-9.268e+02,4.05625
-9.266e+02,4.05625
-9.264e+02,4.05531
-9.262e+02,4.05563
-9.260e+02,4.05625
-9.258e+02,4.05687
-9.256e+02,4.05656
-9.254e+02,4.05687
-9.252e+02,4.05563
-9.250e+02,4.05531
-9.248e+02,4.05531
-9.246e+02,4.05406
-9.244e+02,4.05531
-9.242e+02,4.05375
-9.240e+02,4.05375
-9.238e+02,4.05312
-9.236e+02,4.05344
-9.234e+02,4.05406
-9.232e+02,4.05344
-9.230e+02,4.05469
-9.228e+02,4.05531
-9.226e+02,4.05438
-9.224e+02,4.05312
-9.222e+02,4.05312
-9.220e+02,4.05312
-9.218e+02,4.05281
-9.216e+02,4.05375
-9.214e+02,4.05281
-9.212e+02,4.0525
-9.210e+02,4.05281
-9.208e+02,4.05156
-9.206e+02,4.05219
-9.204e+02,4.05156
-9.202e+02,4.05
-9.200e+02,4.05031
-9.198e+02,4.05125
-9.196e+02,4.05
-9.194e+02,4.04938
-9.192e+02,4.04938
-9.190e+02,4.04938
-9.188e+02,4.04906
-9.186e+02,4.05
-9.184e+02,4.05
-9.182e+02,4.04906
-9.180e+02,4.04938
-9.178e+02,4.04875
-9.176e+02,4.05031
-9.174e+02,4.04969
-9.172e+02,4.05125
-9.170e+02,4.05
-9.168e+02,4.04969
-9.166e+02,4.04969
-9.164e+02,4.04906
-9.162e+02,4.04844
-9.160e+02,4.04844
-9.158e+02,4.04812
-9.156e+02,4.04688
-9.154e+02,4.04719
-9.152e+02,4.04719
-9.150e+02,4.04656
-9.148e+02,4.04656
-9.146e+02,4.04719
-9.144e+02,4.04688
-9.142e+02,4.04656
-9.140e+02,4.04625
-9.138e+02,4.045
-9.136e+02,4.04625
-9.134e+02,4.04656
-9.132e+02,4.04688
-9.130e+02,4.04656
-9.128e+02,4.04656
-9.126e+02,4.04688
-9.124e+02,4.04656
-9.122e+02,4.04656
-9.120e+02,4.04688
-9.118e+02,4.04719
-9.116e+02,4.04719
-9.114e+02,4.04688
-9.112e+02,4.04563
-9.110e+02,4.04563
-9.108e+02,4.04594
-9.106e+02,4.04406
-9.104e+02,4.04469
-9.102e+02,4.04563
-9.100e+02,4.04406
-9.098e+02,4.04438
-9.096e+02,4.04438
-9.094e+02,4.04375
-9.092e+02,4.04438
-9.090e+02,4.04312
-9.088e+02,4.04344
-9.086e+02,4.04375
-9.084e+02,4.04312
-9.082e+02,4.04344
-9.080e+02,4.04281
-9.078e+02,4.04312
-9.076e+02,4.0425
-9.074e+02,4.04312
-9.072e+02,4.04344
-9.070e+02,4.04312
-9.068e+02,4.04219
-9.066e+02,4.04125
-9.064e+02,4.04063
-9.062e+02,4.04125
-9.060e+02,4.04188
-9.058e+02,4.04312
-9.056e+02,4.04219
-9.054e+02,4.04219
-9.052e+02,4.04094
-9.050e+02,4.04094
-9.048e+02,4.04063
-9.046e+02,4.04094
-9.044e+02,4.04125
-9.042e+02,4.04156
-9.040e+02,4.04094
-9.038e+02,4.04063
-9.036e+02,4.04063
-9.034e+02,4.04031
-9.032e+02,4.04094
-9.030e+02,4.04031
-9.028e+02,4.03969
-9.026e+02,4.04063
-9.024e+02,4.04063
-9.022e+02,4.04031
-9.020e+02,4.04063
-9.018e+02,4.04156
-9.016e+02,4.0425
-9.014e+02,4.04156
-9.012e+02,4.04094
-9.010e+02,4.03969
-9.008e+02,4.04063
-9.006e+02,4.04063
-9.004e+02,4.04125
-9.002e+02,4.03969
-9.000e+02,4.04063
-8.998e+02,4.04031
-8.996e+02,4.04063
-8.994e+02,4.03906
-8.992e+02,4.03844
-8.990e+02,4.03906
-8.988e+02,4.03875
-8.986e+02,4.03937
-8.984e+02,4.03875
-8.982e+02,4.03781
-8.980e+02,4.0375
-8.978e+02,4.03812
-8.976e+02,4.03688
-8.974e+02,4.03719
-8.972e+02,4.03844
-8.970e+02,4.03812
-8.968e+02,4.03781
-8.966e+02,4.03781
-8.964e+02,4.03719
-8.962e+02,4.0375
-8.960e+02,4.03719
-8.958e+02,4.03719
-8.956e+02,4.03625
-8.954e+02,4.03625
-8.952e+02,4.03688
-8.950e+02,4.03719
-8.948e+02,4.0375
-8.946e+02,4.03844
-8.944e+02,4.03875
-8.942e+02,4.03906
-8.940e+02,4.03844
-8.938e+02,4.03656
-8.936e+02,4.03563
-8.934e+02,4.0375
-8.932e+02,4.03719
-8.930e+02,4.03625
-8.928e+02,4.03594
-8.926e+02,4.03563
-8.924e+02,4.03625
-8.922e+02,4.0375
-8.920e+02,4.03781
-8.918e+02,4.03688
-8.916e+02,4.03688
-8.914e+02,4.03656
-8.912e+02,4.03688
-8.910e+02,4.03656
-8.908e+02,4.03594
-8.906e+02,4.03531
-8.904e+02,4.03594
-8.902e+02,4.03656
-8.900e+02,4.03594
-8.898e+02,4.035
-8.896e+02,4.03437
-8.894e+02,4.035
-8.892e+02,4.03437
-8.890e+02,4.03406
-8.888e+02,4.03375
-8.886e+02,4.03375
-8.884e+02,4.03156
-8.882e+02,4.03125
-8.880e+02,4.03125
-8.878e+02,4.03062
-8.876e+02,4.03031
-8.874e+02,4.03094
-8.872e+02,4.03062
-8.870e+02,4.03031
-8.868e+02,4.03
-8.866e+02,4.02906
-8.864e+02,4.02875
-8.862e+02,4.02844
-8.860e+02,4.02969
-8.858e+02,4.03
-8.856e+02,4.02906
-8.854e+02,4.02969
-8.852e+02,4.03
-8.850e+02,4.02906
-8.848e+02,4.02969
-8.846e+02,4.03094
-8.844e+02,4.03094
-8.842e+02,4.03
-8.840e+02,4.02969
-8.838e+02,4.02875
-8.836e+02,4.02875
-8.834e+02,4.02906
-8.832e+02,4.03
-8.830e+02,4.02875
-8.828e+02,4.02875
-8.826e+02,4.0275
-8.824e+02,4.02688
-8.822e+02,4.02781
-8.820e+02,4.02875
-8.818e+02,4.02875
-8.816e+02,4.02875
-8.814e+02,4.02813
-8.812e+02,4.02844
-8.810e+02,4.02813
-8.808e+02,4.02844
-8.806e+02,4.02875
-8.804e+02,4.02781
-8.802e+02,4.02875
-8.800e+02,4.02813
-8.798e+02,4.02781
-8.796e+02,4.02844
-8.794e+02,4.02875
-8.792e+02,4.02844
-8.790e+02,4.02844
-8.788e+02,4.02844
-8.786e+02,4.0275
-8.784e+02,4.0275
-8.782e+02,4.02781
-8.780e+02,4.02813
-8.778e+02,4.02688
-8.776e+02,4.02656
-8.774e+02,4.02594
-8.772e+02,4.02562
-8.770e+02,4.025
-8.768e+02,4.02562
-8.766e+02,4.02594
-8.764e+02,4.02594
-8.762e+02,4.02562
-8.760e+02,4.02562
-8.758e+02,4.02594
-8.756e+02,4.0275
-8.754e+02,4.02625
-8.752e+02,4.02594
-8.750e+02,4.025
-8.748e+02,4.02469
-8.746e+02,4.025
-8.744e+02,4.025
-8.742e+02,4.02531
-8.740e+02,4.02438
-8.738e+02,4.02656
-8.736e+02,4.02688
-8.734e+02,4.02562
-8.732e+02,4.02625
-8.730e+02,4.02656
-8.728e+02,4.02562
-8.726e+02,4.02531
-8.724e+02,4.02438
-8.722e+02,4.02438
-8.720e+02,4.025
-8.718e+02,4.02375
-8.716e+02,4.02375
-8.714e+02,4.02375
-8.712e+02,4.02344
-8.710e+02,4.02469
-8.708e+02,4.02469
-8.706e+02,4.02344
-8.704e+02,4.0225
-8.702e+02,4.0225
-8.700e+02,4.02313
-8.698e+02,4.02344
-8.696e+02,4.02344
-8.694e+02,4.02344
-8.692e+02,4.0225
-8.690e+02,4.0225
-8.688e+02,4.02187
-8.686e+02,4.02219
-8.684e+02,4.0225
-8.682e+02,4.02187
-8.680e+02,4.02219
-8.678e+02,4.02156
-8.676e+02,4.02125
-8.674e+02,4.02125
-8.672e+02,4.02187
-8.670e+02,4.0225
-8.668e+02,4.02313
-8.666e+02,4.02281
-8.664e+02,4.02187
-8.662e+02,4.0225
-8.660e+02,4.02344
-8.658e+02,4.02281
-8.656e+02,4.02281
-8.654e+02,4.02187
-8.652e+02,4.02187
-8.650e+02,4.0225
-8.648e+02,4.02281
-8.646e+02,4.02281
-8.644e+02,4.02187
-8.642e+02,4.02125
-8.640e+02,4.02187
-8.638e+02,4.02187
-8.636e+02,4.02062
-8.634e+02,4.02062
-8.632e+02,4.02156
-8.630e+02,4.02125
-8.628e+02,4.02125
-8.626e+02,4.02062
-8.624e+02,4.02031
-8.622e+02,4.01969
-8.620e+02,4.01906
-8.618e+02,4.01844
-8.616e+02,4.01938
-8.614e+02,4.0175
-8.612e+02,4.01781
-8.610e+02,4.01906
-8.608e+02,4.02062
-8.606e+02,4.02094
-8.604e+02,4.02062
-8.602e+02,4.02031
-8.600e+02,4.01844
-8.598e+02,4.01969
-8.596e+02,4.01938
-8.594e+02,4.01969
-8.592e+02,4.02031
-8.590e+02,4.02
-8.588e+02,4.01938
-8.586e+02,4.01969
-8.584e+02,4.01906
-8.582e+02,4.0175
-8.580e+02,4.0175
-8.578e+02,4.01656
-8.576e+02,4.01625
-8.574e+02,4.01594
-8.572e+02,4.01687
-8.570e+02,4.01625
-8.568e+02,4.01656
-8.566e+02,4.01625
-8.564e+02,4.01687
-8.562e+02,4.01594
-8.560e+02,4.01562
-8.558e+02,4.01531
-8.556e+02,4.01562
-8.554e+02,4.01656
-8.552e+02,4.0175
-8.550e+02,4.01781
-8.548e+02,4.01656
-8.546e+02,4.01625
-8.544e+02,4.01594
-8.542e+02,4.01687
-8.540e+02,4.01656
-8.538e+02,4.01656
-8.536e+02,4.01687
-8.534e+02,4.0175
-8.532e+02,4.0175
-8.530e+02,4.01625
-8.528e+02,4.01656
-8.526e+02,4.01719
-8.524e+02,4.0175
-8.522e+02,4.01813
-8.520e+02,4.01844
-8.518e+02,4.01687
-8.516e+02,4.01656
-8.514e+02,4.01594
-8.512e+02,4.01656
-8.510e+02,4.01625
-8.508e+02,4.01625
-8.506e+02,4.01594
-8.504e+02,4.01562
-8.502e+02,4.01562
-8.500e+02,4.01531
-8.498e+02,4.015
-8.496e+02,4.01531
-8.494e+02,4.01531
-8.492e+02,4.01562
-8.490e+02,4.01594
-8.488e+02,4.01687
-8.486e+02,4.01719
-8.484e+02,4.01469
-8.482e+02,4.01469
-8.480e+02,4.01406
-8.478e+02,4.01469
-8.476e+02,4.015
-8.474e+02,4.01531
-8.472e+02,4.01562
-8.470e+02,4.01594
-8.468e+02,4.01531
-8.466e+02,4.01594
-8.464e+02,4.01562
-8.462e+02,4.01531
-8.460e+02,4.01531
-8.458e+02,4.01594
-8.456e+02,4.015
-8.454e+02,4.01562
-8.452e+02,4.015
-8.450e+02,4.01438
-8.448e+02,4.01531
-8.446e+02,4.01562
-8.444e+02,4.01438
-8.442e+02,4.015
-8.440e+02,4.01406
-8.438e+02,4.01438
-8.436e+02,4.01406
-8.434e+02,4.01469
-8.432e+02,4.015
-8.430e+02,4.01531
-8.428e+02,4.01562
-8.426e+02,4.01531
-8.424e+02,4.01625
-8.422e+02,4.01594
-8.420e+02,4.01562
-8.418e+02,4.01531
-8.416e+02,4.015
-8.414e+02,4.01406
-8.412e+02,4.01313
-8.410e+02,4.01406
-8.408e+02,4.01375
-8.406e+02,4.01469
-8.404e+02,4.01469
-8.402e+02,4.01469
-8.400e+02,4.01438
-8.398e+02,4.01438
-8.396e+02,4.01375
-8.394e+02,4.01313
-8.392e+02,4.01313
-8.390e+02,4.0125
-8.388e+02,4.01219
-8.386e+02,4.01187
-8.384e+02,4.01094
-8.382e+02,4.01125
-8.380e+02,4.01125
-8.378e+02,4.01156
-8.376e+02,4.01156
-8.374e+02,4.01156
-8.372e+02,4.01156
-8.370e+02,4.01187
-8.368e+02,4.0125
-8.366e+02,4.0125
-8.364e+02,4.01125
-8.362e+02,4.01125
-8.360e+02,4.01187
-8.358e+02,4.01187
-8.356e+02,4.01187
-8.354e+02,4.01187
-8.352e+02,4.01219
-8.350e+02,4.01125
-8.348e+02,4.01125
-8.346e+02,4.01219
-8.344e+02,4.01063
-8.342e+02,4.00969
-8.340e+02,4.01031
-8.338e+02,4.01125
-8.336e+02,4.00938
-8.334e+02,4.01
-8.332e+02,4.01094
-8.330e+02,4.01156
-8.328e+02,4.01219
-8.326e+02,4.01219
-8.324e+02,4.01156
-8.322e+02,4.01094
-8.320e+02,4.01125
-8.318e+02,4.01094
-8.316e+02,4.01125
-8.314e+02,4.01187
-8.312e+02,4.01156
-8.310e+02,4.01125
-8.308e+02,4.01
-8.306e+02,4.01031
-8.304e+02,4.01156
-8.302e+02,4.01187
-8.300e+02,4.01094
-8.298e+02,4.01156
-8.296e+02,4.0125
-8.294e+02,4.0125
-8.292e+02,4.01219
-8.290e+02,4.01187
-8.288e+02,4.01187
-8.286e+02,4.01156
-8.284e+02,4.01
-8.282e+02,4.01031
-8.280e+02,4.01125
-8.278e+02,4.01125
-8.276e+02,4.01187
-8.274e+02,4.01031
-8.272e+02,4.00844
-8.270e+02,4.01031
-8.268e+02,4.00969
-8.266e+02,4.00906
-8.264e+02,4.00906
-8.262e+02,4.01
-8.260e+02,4.01063
-8.258e+02,4.00969
-8.256e+02,4.01031
-8.254e+02,4.01031
-8.252e+02,4.01063
-8.250e+02,4.00938
-8.248e+02,4.00969
-8.246e+02,4.01
-8.244e+02,4.01031
-8.242e+02,4.00969
-8.240e+02,4.00969
-8.238e+02,4.00906
-8.236e+02,4.01
-8.234e+02,4.01
-8.232e+02,4.00969
-8.230e+02,4.00938
-8.228e+02,4.00906
-8.226e+02,4.01063
-8.224e+02,4.00969
-8.222e+02,4.00875
-8.220e+02,4.01
-8.218e+02,4.00969
-8.216e+02,4.01031
-8.214e+02,4.00969
-8.212e+02,4.00906
-8.210e+02,4.00906
-8.208e+02,4.00781
-8.206e+02,4.00906
-8.204e+02,4.00781
-8.202e+02,4.00625
-8.200e+02,4.00563
-8.198e+02,4.00625
-8.196e+02,4.00625
-8.194e+02,4.00719
-8.192e+02,4.00594
-8.190e+02,4.00594
-8.188e+02,4.00719
-8.186e+02,4.00781
-8.184e+02,4.0075
-8.182e+02,4.0075
-8.180e+02,4.00938
-8.178e+02,4.01
-8.176e+02,4.00938
-8.174e+02,4.00938
-8.172e+02,4.00938
-8.170e+02,4.00906
-8.168e+02,4.00875
-8.166e+02,4.00781
-8.164e+02,4.0075
-8.162e+02,4.00719
-8.160e+02,4.00719
-8.158e+02,4.00687
-8.156e+02,4.00656
-8.154e+02,4.00719
-8.152e+02,4.00563
-8.150e+02,4.00625
-8.148e+02,4.00563
-8.146e+02,4.00594
-8.144e+02,4.005
-8.142e+02,4.00469
-8.140e+02,4.00375
-8.138e+02,4.00469
-8.136e+02,4.00469
-8.134e+02,4.00531
-8.132e+02,4.005
-8.130e+02,4.00563
-8.128e+02,4.00531
-8.126e+02,4.00531
-8.124e+02,4.00594
-8.122e+02,4.005
-8.120e+02,4.00438
-8.118e+02,4.005
-8.116e+02,4.00625
-8.114e+02,4.00594
-8.112e+02,4.00656
-8.110e+02,4.00594
-8.108e+02,4.00531
-8.106e+02,4.00406
-8.104e+02,4.00344
-8.102e+02,4.00438
-8.100e+02,4.00375
-8.098e+02,4.00438
-8.096e+02,4.00375
-8.094e+02,4.00531
-8.092e+02,4.00594
-8.090e+02,4.005
-8.088e+02,4.00563
-8.086e+02,4.005
-8.084e+02,4.00438
-8.082e+02,4.00469
-8.080e+02,4.00594
-8.078e+02,4.00531
-8.076e+02,4.00531
-8.074e+02,4.00563
-8.072e+02,4.00625
-8.070e+02,4.00594
-8.068e+02,4.00594
-8.066e+02,4.00625
-8.064e+02,4.00469
-8.062e+02,4.00531
-8.060e+02,4.00438
-8.058e+02,4.00438
-8.056e+02,4.00563
-8.054e+02,4.00563
-8.052e+02,4.00563
-8.050e+02,4.00563
-8.048e+02,4.005
-8.046e+02,4.00469
-8.044e+02,4.00438
-8.042e+02,4.00438
-8.040e+02,4.005
-8.038e+02,4.00594
-8.036e+02,4.00656
-8.034e+02,4.00719
-8.032e+02,4.00875
-8.030e+02,4.00906
-8.028e+02,4.00469
-8.026e+02,4.00438
-8.024e+02,4.00469
-8.022e+02,4.00375
-8.020e+02,4.00406
-8.018e+02,4.00438
-8.016e+02,4.00469
-8.014e+02,4.00469
-8.012e+02,4.00438
-8.010e+02,4.00312
-8.008e+02,4.0025
-8.006e+02,4.00344
-8.004e+02,4.00406
-8.002e+02,4.00344
-8.000e+02,4.00344
-7.998e+02,4.00406
-7.996e+02,4.00438
-7.994e+02,4.00438
-7.992e+02,4.00344
-7.990e+02,4.00375
-7.988e+02,4.00125
-7.986e+02,4.00063
-7.984e+02,4.00156
-7.982e+02,4.00312
-7.980e+02,4.00312
-7.978e+02,4.00312
-7.976e+02,4.0025
-7.974e+02,4.00125
-7.972e+02,4.00125
-7.970e+02,4.00094
-7.968e+02,4.00219
-7.966e+02,4.0025
-7.964e+02,4.0025
-7.962e+02,4.00094
-7.960e+02,4.00094
-7.958e+02,4.00094
-7.956e+02,4.00031
-7.954e+02,3.99906
-7.952e+02,3.99875
-7.950e+02,3.99906
-7.948e+02,3.99938
-7.946e+02,3.99812
-7.944e+02,3.99938
-7.942e+02,3.99969
-7.940e+02,4
-7.938e+02,4
-7.936e+02,3.99906
-7.934e+02,3.99906
-7.932e+02,3.99812
-7.930e+02,3.99812
-7.928e+02,3.99719
-7.926e+02,3.99625
-7.924e+02,3.99719
-7.922e+02,3.99688
-7.920e+02,3.99906
-7.918e+02,3.99938
-7.916e+02,3.99969
-7.914e+02,3.99844
-7.912e+02,3.99844
-7.910e+02,3.99656
-7.908e+02,3.99594
-7.906e+02,3.99688
-7.904e+02,3.99719
-7.902e+02,3.99688
-7.900e+02,3.99594
-7.898e+02,3.99625
-7.896e+02,3.99656
-7.894e+02,3.99594
-7.892e+02,3.99562
-7.890e+02,3.99562
-7.888e+02,3.99531
-7.886e+02,3.995
-7.884e+02,3.99438
-7.882e+02,3.99438
-7.880e+02,3.99531
-7.878e+02,3.99594
-7.876e+02,3.99438
-7.874e+02,3.99375
-7.872e+02,3.995
-7.870e+02,3.99562
-7.868e+02,3.99625
-7.866e+02,3.99594
-7.864e+02,3.99469
-7.862e+02,3.995
-7.860e+02,3.99531
-7.858e+02,3.99438
-7.856e+02,3.99406
-7.854e+02,3.99406
-7.852e+02,3.99375
-7.850e+02,3.99344
-7.848e+02,3.99313
-7.846e+02,3.99313
-7.844e+02,3.99313
-7.842e+02,3.99344
-7.840e+02,3.99438
-7.838e+02,3.99438
-7.836e+02,3.99406
-7.834e+02,3.99375
-7.832e+02,3.99281
-7.830e+02,3.9925
-7.828e+02,3.99281
-7.826e+02,3.99313
-7.824e+02,3.99406
-7.822e+02,3.99375
-7.820e+02,3.99375
-7.818e+02,3.99375
-7.816e+02,3.99375
-7.814e+02,3.99406
-7.812e+02,3.9925
-7.810e+02,3.99281
-7.808e+02,3.9925
-7.806e+02,3.99125
-7.804e+02,3.99125
-7.802e+02,3.99281
-7.800e+02,3.9925
-7.798e+02,3.99344
-7.796e+02,3.99313
-7.794e+02,3.99156
-7.792e+02,3.99188
-7.790e+02,3.99125
-7.788e+02,3.99188
-7.786e+02,3.99125
-7.784e+02,3.9925
-7.782e+02,3.99094
-7.780e+02,3.99125
-7.778e+02,3.99063
-7.776e+02,3.99
-7.774e+02,3.99031
-7.772e+02,3.99125
-7.770e+02,3.98969
-7.768e+02,3.98937
-7.766e+02,3.98844
-7.764e+02,3.98875
-7.762e+02,3.98875
-7.760e+02,3.99
-7.758e+02,3.99031
-7.756e+02,3.99031
-7.754e+02,3.99063
-7.752e+02,3.99063
-7.750e+02,3.98937
-7.748e+02,3.99094
-7.746e+02,3.99
-7.744e+02,3.98969
-7.742e+02,3.98969
-7.740e+02,3.98875
-7.738e+02,3.98906
-7.736e+02,3.99
-7.734e+02,3.98969
-7.732e+02,3.98875
-7.730e+02,3.98813
-7.728e+02,3.98844
-7.726e+02,3.9875
-7.724e+02,3.9875
-7.722e+02,3.9875
-7.720e+02,3.98781
-7.718e+02,3.98844
-7.716e+02,3.98813
-7.714e+02,3.98781
-7.712e+02,3.98813
-7.710e+02,3.98781
-7.708e+02,3.98656
-7.706e+02,3.98656
-7.704e+02,3.98719
-7.702e+02,3.98719
-7.700e+02,3.98844
-7.698e+02,3.98781
-7.696e+02,3.98813
-7.694e+02,3.9875
-7.692e+02,3.9875
-7.690e+02,3.98656
-7.688e+02,3.98719
-7.686e+02,3.98844
-7.684e+02,3.98844
-7.682e+02,3.98813
-7.680e+02,3.98844
-7.678e+02,3.98906
-7.676e+02,3.98844
-7.674e+02,3.98781
-7.672e+02,3.98906
-7.670e+02,3.98719
-7.668e+02,3.98719
-7.666e+02,3.98844
-7.664e+02,3.98875
-7.662e+02,3.98813
-7.660e+02,3.98844
-7.658e+02,3.98719
-7.656e+02,3.98656
-7.654e+02,3.98594
-7.652e+02,3.98594
-7.650e+02,3.98594
-7.648e+02,3.98656
-7.646e+02,3.98531
-7.644e+02,3.985
-7.642e+02,3.985
-7.640e+02,3.98531
-7.638e+02,3.98531
-7.636e+02,3.98469
-7.634e+02,3.98438
-7.632e+02,3.98375
-7.630e+02,3.98438
-7.628e+02,3.98406
-7.626e+02,3.98438
-7.624e+02,3.98469
-7.622e+02,3.98406
-7.620e+02,3.985
-7.618e+02,3.98625
-7.616e+02,3.98594
-7.614e+02,3.98656
-7.612e+02,3.98563
-7.610e+02,3.98563
-7.608e+02,3.985
-7.606e+02,3.98469
-7.604e+02,3.98406
-7.602e+02,3.98594
-7.600e+02,3.98563
-7.598e+02,3.98469
-7.596e+02,3.98375
-7.594e+02,3.98313
-7.592e+02,3.985
-7.590e+02,3.985
-7.588e+02,3.98375
-7.586e+02,3.98375
-7.584e+02,3.98344
-7.582e+02,3.98375
-7.580e+02,3.98375
-7.578e+02,3.98281
-7.576e+02,3.98375
-7.574e+02,3.98313
-7.572e+02,3.98375
-7.570e+02,3.98438
-7.568e+02,3.98375
-7.566e+02,3.98281
-7.564e+02,3.98313
-7.562e+02,3.98344
-7.560e+02,3.98313
-7.558e+02,3.98313
-7.556e+02,3.9825
-7.554e+02,3.9825
-7.552e+02,3.98313
-7.550e+02,3.9825
-7.548e+02,3.98094
-7.546e+02,3.98219
-7.544e+02,3.98281
-7.542e+02,3.9825
-7.540e+02,3.98219
-7.538e+02,3.98281
-7.536e+02,3.98219
-7.534e+02,3.98125
-7.532e+02,3.98094
-7.530e+02,3.98094
-7.528e+02,3.98094
-7.526e+02,3.98063
-7.524e+02,3.98125
-7.522e+02,3.98219
-7.520e+02,3.98188
-7.518e+02,3.98125
-7.516e+02,3.98094
-7.514e+02,3.98125
-7.512e+02,3.98
-7.510e+02,3.97875
-7.508e+02,3.97969
-7.506e+02,3.98
-7.504e+02,3.97844
-7.502e+02,3.97906
-7.500e+02,3.97875
-7.498e+02,3.97781
-7.496e+02,3.97812
-7.494e+02,3.97875
-7.492e+02,3.97812
-7.490e+02,3.9775
-7.488e+02,3.9775
-7.486e+02,3.9775
-7.484e+02,3.97812
-7.482e+02,3.97844
-7.480e+02,3.97812
-7.478e+02,3.9775
-7.476e+02,3.97781
-7.474e+02,3.9775
-7.472e+02,3.97656
-7.470e+02,3.97656
-7.468e+02,3.97781
-7.466e+02,3.9775
-7.464e+02,3.97562
-7.462e+02,3.975
-7.460e+02,3.97531
-7.458e+02,3.97594
-7.456e+02,3.97531
-7.454e+02,3.975
-7.452e+02,3.975
-7.450e+02,3.97531
-7.448e+02,3.975
-7.446e+02,3.97469
-7.444e+02,3.975
-7.442e+02,3.97594
-7.440e+02,3.97562
-7.438e+02,3.97531
-7.436e+02,3.975
-7.434e+02,3.97406
-7.432e+02,3.97375
-7.430e+02,3.97344
-7.428e+02,3.97344
-7.426e+02,3.97344
-7.424e+02,3.97344
-7.422e+02,3.97344
-7.420e+02,3.97375
-7.418e+02,3.97344
-7.416e+02,3.97281
-7.414e+02,3.97313
-7.412e+02,3.97219
-7.410e+02,3.97344
-7.408e+02,3.97438
-7.406e+02,3.97375
-7.404e+02,3.97375
-7.402e+02,3.97375
-7.400e+02,3.97406
-7.398e+02,3.97406
-7.396e+02,3.97344
-7.394e+02,3.97281
-7.392e+02,3.97125
-7.390e+02,3.97156
-7.388e+02,3.97219
-7.386e+02,3.97188
-7.384e+02,3.97031
-7.382e+02,3.97063
-7.380e+02,3.97031
-7.378e+02,3.97031
-7.376e+02,3.97031
-7.374e+02,3.97031
-7.372e+02,3.97188
-7.370e+02,3.97125
-7.368e+02,3.97156
-7.366e+02,3.97031
-7.364e+02,3.97063
-7.362e+02,3.97063
-7.360e+02,3.97031
-7.358e+02,3.97
-7.356e+02,3.96906
-7.354e+02,3.96937
-7.352e+02,3.96937
-7.350e+02,3.96875
-7.348e+02,3.96937
-7.346e+02,3.96937
-7.344e+02,3.96844
-7.342e+02,3.9675
-7.340e+02,3.96813
-7.338e+02,3.96781
-7.336e+02,3.96781
-7.334e+02,3.96719
-7.332e+02,3.9675
-7.330e+02,3.96719
-7.328e+02,3.96719
-7.326e+02,3.96687
-7.324e+02,3.96656
-7.322e+02,3.9675
-7.320e+02,3.96781
-7.318e+02,3.9675
-7.316e+02,3.96687
-7.314e+02,3.96687
-7.312e+02,3.96687
-7.310e+02,3.96656
-7.308e+02,3.96656
-7.306e+02,3.96719
-7.304e+02,3.96719
-7.302e+02,3.9675
-7.300e+02,3.96781
-7.298e+02,3.96781
-7.296e+02,3.96719
-7.294e+02,3.96656
-7.292e+02,3.96594
-7.290e+02,3.965
-7.288e+02,3.965
-7.286e+02,3.96375
-7.284e+02,3.96437
-7.282e+02,3.96625
-7.280e+02,3.96625
-7.278e+02,3.96594
-7.276e+02,3.965
-7.274e+02,3.96531
-7.272e+02,3.96469
-7.270e+02,3.96406
-7.268e+02,3.96375
-7.266e+02,3.96313
-7.264e+02,3.96406
-7.262e+02,3.96344
-7.260e+02,3.96375
-7.258e+02,3.96313
-7.256e+02,3.9625
-7.254e+02,3.96188
-7.252e+02,3.96219
-7.250e+02,3.9625
-7.248e+02,3.9625
-7.246e+02,3.96219
-7.244e+02,3.96188
-7.242e+02,3.96281
-7.240e+02,3.96313
-7.238e+02,3.96281
-7.236e+02,3.96313
-7.234e+02,3.96281
-7.232e+02,3.9625
-7.230e+02,3.96125
-7.228e+02,3.96156
-7.226e+02,3.96125
-7.224e+02,3.96188
-7.222e+02,3.96156
-7.220e+02,3.96219
-7.218e+02,3.96156
-7.216e+02,3.96188
-7.214e+02,3.96156
-7.212e+02,3.96156
-7.210e+02,3.96094
-7.208e+02,3.95875
-7.206e+02,3.95906
-7.204e+02,3.95844
-7.202e+02,3.95875
-7.200e+02,3.95969
-7.198e+02,3.95969
-7.196e+02,3.96
-7.194e+02,3.95969
-7.192e+02,3.95969
-7.190e+02,3.96094
-7.188e+02,3.96063
-7.186e+02,3.95875
-7.184e+02,3.95906
-7.182e+02,3.95875
-7.180e+02,3.95844
-7.178e+02,3.95938
-7.176e+02,3.95875
-7.174e+02,3.95781
-7.172e+02,3.95906
-7.170e+02,3.95719
-7.168e+02,3.95719
-7.166e+02,3.95594
-7.164e+02,3.95625
-7.162e+02,3.95656
-7.160e+02,3.95625
-7.158e+02,3.95562
-7.156e+02,3.95562
-7.154e+02,3.95562
-7.152e+02,3.95438
-7.150e+02,3.95406
-7.148e+02,3.95344
-7.146e+02,3.9525
-7.144e+02,3.95281
-7.142e+02,3.95312
-7.140e+02,3.95375
-7.138e+02,3.95281
-7.136e+02,3.95438
-7.134e+02,3.95438
-7.132e+02,3.95438
-7.130e+02,3.95375
-7.128e+02,3.95469
-7.126e+02,3.95375
-7.124e+02,3.95469
-7.122e+02,3.95438
-7.120e+02,3.95531
-7.118e+02,3.95469
-7.116e+02,3.95594
-7.114e+02,3.95594
-7.112e+02,3.95469
-7.110e+02,3.95406
-7.108e+02,3.95281
-7.106e+02,3.95188
-7.104e+02,3.95156
-7.102e+02,3.95156
-7.100e+02,3.95219
-7.098e+02,3.95188
-7.096e+02,3.95281
-7.094e+02,3.95281
-7.092e+02,3.95281
-7.090e+02,3.95312
-7.088e+02,3.95344
-7.086e+02,3.95188
-7.084e+02,3.95188
-7.082e+02,3.95156
-7.080e+02,3.9525
-7.078e+02,3.9525
-7.076e+02,3.95312
-7.074e+02,3.95312
-7.072e+02,3.95281
-7.070e+02,3.95281
-7.068e+02,3.9525
-7.066e+02,3.95219
-7.064e+02,3.95125
-7.062e+02,3.95125
-7.060e+02,3.95156
-7.058e+02,3.95125
-7.056e+02,3.95094
-7.054e+02,3.95125
-7.052e+02,3.95125
-7.050e+02,3.95031
-7.048e+02,3.95094
-7.046e+02,3.95
-7.044e+02,3.94938
-7.042e+02,3.95
-7.040e+02,3.95
-7.038e+02,3.95
-7.036e+02,3.94906
-7.034e+02,3.94906
-7.032e+02,3.94844
-7.030e+02,3.94875
-7.028e+02,3.94844
-7.026e+02,3.9475
-7.024e+02,3.9475
-7.022e+02,3.94687
-7.020e+02,3.94781
-7.018e+02,3.94781
-7.016e+02,3.94656
-7.014e+02,3.9475
-7.012e+02,3.94781
-7.010e+02,3.94875
-7.008e+02,3.94813
-7.006e+02,3.94781
-7.004e+02,3.9475
-7.002e+02,3.94687
-7.000e+02,3.94656
-6.998e+02,3.94625
-6.996e+02,3.94719
-6.994e+02,3.94656
-6.992e+02,3.94656
-6.990e+02,3.94656
-6.988e+02,3.94687
-6.986e+02,3.94781
-6.984e+02,3.94687
-6.982e+02,3.94687
-6.980e+02,3.94687
-6.978e+02,3.94656
-6.976e+02,3.94687
-6.974e+02,3.94781
-6.972e+02,3.94719
-6.970e+02,3.94813
-6.968e+02,3.9475
-6.966e+02,3.94813
-6.964e+02,3.94844
-6.962e+02,3.94781
-6.960e+02,3.94687
-6.958e+02,3.94687
-6.956e+02,3.9475
-6.954e+02,3.94656
-6.952e+02,3.94687
-6.950e+02,3.94687
-6.948e+02,3.94594
-6.946e+02,3.94594
-6.944e+02,3.94563
-6.942e+02,3.94469
-6.940e+02,3.945
-6.938e+02,3.94531
-6.936e+02,3.94563
-6.934e+02,3.94563
-6.932e+02,3.94375
-6.930e+02,3.945
-6.928e+02,3.94594
-6.926e+02,3.94469
-6.924e+02,3.94406
-6.922e+02,3.94469
-6.920e+02,3.94375
-6.918e+02,3.945
-6.916e+02,3.94469
-6.914e+02,3.94375
-6.912e+02,3.94406
-6.910e+02,3.945
-6.908e+02,3.94406
-6.906e+02,3.94406
-6.904e+02,3.94375
-6.902e+02,3.945
-6.900e+02,3.94375
-6.898e+02,3.94375
-6.896e+02,3.94406
-6.894e+02,3.94531
-6.892e+02,3.94406
-6.890e+02,3.94344
-6.888e+02,3.94313
-6.886e+02,3.94281
-6.884e+02,3.94219
-6.882e+02,3.94219
-6.880e+02,3.94156
-6.878e+02,3.94156
-6.876e+02,3.94156
-6.874e+02,3.94031
-6.872e+02,3.94031
-6.870e+02,3.93844
-6.868e+02,3.93938
-6.866e+02,3.99875
-6.864e+02,4.01594
-6.862e+02,4.01781
-6.860e+02,4.02062
-6.858e+02,4.02156
-6.856e+02,4.02219
-6.854e+02,4.02281
-6.852e+02,4.02469
-6.850e+02,4.02656
-6.848e+02,4.02813
-6.846e+02,4.03
-6.844e+02,4.02875
-6.842e+02,4.02969
-6.840e+02,4.03
-6.838e+02,4.03094
-6.836e+02,4.03313
-6.834e+02,4.03344
-6.832e+02,4.03406
-6.830e+02,4.03594
-6.828e+02,4.03531
-6.826e+02,4.03563
-6.824e+02,4.03594
-6.822e+02,4.03656
-6.820e+02,4.03656
-6.818e+02,4.0375
-6.816e+02,4.03656
-6.814e+02,4.03719
-6.812e+02,4.03844
-6.810e+02,4.03875
-6.808e+02,4.03906
-6.806e+02,4.03906
-6.804e+02,4.04063
-6.802e+02,4.04094
-6.800e+02,4.04219
-6.798e+02,4.0425
-6.796e+02,4.04344
-6.794e+02,4.0425
-6.792e+02,4.04406
-6.790e+02,4.04469
-6.788e+02,4.045
-6.786e+02,4.04406
-6.784e+02,4.04625
-6.782e+02,4.04594
-6.780e+02,4.04563
-6.778e+02,4.04719
-6.776e+02,4.04844
-6.774e+02,4.04906
-6.772e+02,4.04906
-6.770e+02,4.04812
-6.768e+02,4.04906
-6.766e+02,4.04969
-6.764e+02,4.04938
-6.762e+02,4.05031
-6.760e+02,4.05125
-6.758e+02,4.05
-6.756e+02,4.05
-6.754e+02,4.05156
-6.752e+02,4.05156
-6.750e+02,4.05187
-6.748e+02,4.05281
-6.746e+02,4.05156
-6.744e+02,4.0525
-6.742e+02,4.05344
-6.740e+02,4.05312
-6.738e+02,4.05312
-6.736e+02,4.05375
-6.734e+02,4.05312
-6.732e+02,4.05344
-6.730e+02,4.055
-6.728e+02,4.05469
-6.726e+02,4.05563
-6.724e+02,4.05563
-6.722e+02,4.055
-6.720e+02,4.05656
-6.718e+02,4.05656
-6.716e+02,4.05625
-6.714e+02,4.05687
-6.712e+02,4.05687
-6.710e+02,4.0575
-6.708e+02,4.05687
-6.706e+02,4.05719
-6.704e+02,4.05781
-6.702e+02,4.05875
-6.700e+02,4.06
-6.698e+02,4.06031
-6.696e+02,4.05969
-6.694e+02,4.05906
-6.692e+02,4.05938
-6.690e+02,4.06
-6.688e+02,4.06
-6.686e+02,4.06031
-6.684e+02,4.06156
-6.682e+02,4.06062
-6.680e+02,4.06219
-6.678e+02,4.0625
-6.676e+02,4.06344
-6.674e+02,4.06344
-6.672e+02,4.06344
-6.670e+02,4.0625
-6.668e+02,4.0625
-6.666e+02,4.06219
-6.664e+02,4.06219
-6.662e+02,4.06344
-6.660e+02,4.06406
-6.658e+02,4.06469
-6.656e+02,4.06594
-6.654e+02,4.065
-6.652e+02,4.065
-6.650e+02,4.06594
-6.648e+02,4.06531
-6.646e+02,4.06562
-6.644e+02,4.06562
-6.642e+02,4.06562
-6.640e+02,4.06562
-6.638e+02,4.06719
-6.636e+02,4.0675
-6.634e+02,4.06937
-6.632e+02,4.06781
-6.630e+02,4.06813
-6.628e+02,4.06719
-6.626e+02,4.06844
-6.624e+02,4.06875
-6.622e+02,4.06906
-6.620e+02,4.07031
-6.618e+02,4.07031
-6.616e+02,4.07062
-6.614e+02,4.07094
-6.612e+02,4.07125
-6.610e+02,4.07125
-6.608e+02,4.07125
-6.606e+02,4.07062
-6.604e+02,4.07094
-6.602e+02,4.07031
-6.600e+02,4.07031
-6.598e+02,4.07094
-6.596e+02,4.07219
-6.594e+02,4.07281
-6.592e+02,4.07344
-6.590e+02,4.07344
-6.588e+02,4.07344
-6.586e+02,4.07313
-6.584e+02,4.07375
-6.582e+02,4.07437
-6.580e+02,4.07469
-6.578e+02,4.07406
-6.576e+02,4.07344
-6.574e+02,4.07437
-6.572e+02,4.07531
-6.570e+02,4.07344
-6.568e+02,4.07437
-6.566e+02,4.07531
-6.564e+02,4.07531
-6.562e+02,4.07563
-6.560e+02,4.07469
-6.558e+02,4.07469
-6.556e+02,4.075
-6.554e+02,4.07531
-6.552e+02,4.075
-6.550e+02,4.07437
-6.548e+02,4.07406
-6.546e+02,4.07406
-6.544e+02,4.07469
-6.542e+02,4.07531
-6.540e+02,4.075
-6.538e+02,4.07563
-6.536e+02,4.075
-6.534e+02,4.07469
-6.532e+02,4.07437
-6.530e+02,4.07437
-6.528e+02,4.07437
-6.526e+02,4.07375
-6.524e+02,4.07375
-6.522e+02,4.075
-6.520e+02,4.07531
-6.518e+02,4.07563
-6.516e+02,4.07531
-6.514e+02,4.07531
-6.512e+02,4.075
-6.510e+02,4.07594
-6.508e+02,4.07594
-6.506e+02,4.07469
-6.504e+02,4.07625
-6.502e+02,4.07563
-6.500e+02,4.07656
-6.498e+02,4.0775
-6.496e+02,4.07656
-6.494e+02,4.07781
-6.492e+02,4.0775
-6.490e+02,4.07656
-6.488e+02,4.07625
-6.486e+02,4.07563
-6.484e+02,4.07688
-6.482e+02,4.07781
-6.480e+02,4.07688
-6.478e+02,4.07563
-6.476e+02,4.07594
-6.474e+02,4.07656
-6.472e+02,4.07844
-6.470e+02,4.07969
-6.468e+02,4.07906
-6.466e+02,4.07875
-6.464e+02,4.07937
-6.462e+02,4.07937
-6.460e+02,4.07875
-6.458e+02,4.07906
-6.456e+02,4.07937
-6.454e+02,4.07937
-6.452e+02,4.08
-6.450e+02,4.07906
-6.448e+02,4.07969
-6.446e+02,4.07969
-6.444e+02,4.07969
-6.442e+02,4.08031
-6.440e+02,4.07969
-6.438e+02,4.07969
-6.436e+02,4.08
-6.434e+02,4.08156
-6.432e+02,4.08063
-6.430e+02,4.07937
-6.428e+02,4.07969
-6.426e+02,4.08
-6.424e+02,4.07937
-6.422e+02,4.08031
-6.420e+02,4.07969
-6.418e+02,4.07906
-6.416e+02,4.08063
-6.414e+02,4.08125
-6.412e+02,4.08094
-6.410e+02,4.08094
-6.408e+02,4.08156
-6.406e+02,4.08063
-6.404e+02,4.08125
-6.402e+02,4.08063
-6.400e+02,4.07969
-6.398e+02,4.08
-6.396e+02,4.08063
-6.394e+02,4.08
-6.392e+02,4.07969
-6.390e+02,4.07969
-6.388e+02,4.07969
-6.386e+02,4.07969
-6.384e+02,4.07937
-6.382e+02,4.08063
-6.380e+02,4.08063
-6.378e+02,4.08094
-6.376e+02,4.08094
-6.374e+02,4.08
-6.372e+02,4.08219
-6.370e+02,4.08188
-6.368e+02,4.08219
-6.366e+02,4.08344
-6.364e+02,4.08281
-6.362e+02,4.08219
-6.360e+02,4.08125
-6.358e+02,4.08125
-6.356e+02,4.08188
-6.354e+02,4.08406
-6.352e+02,4.08344
-6.350e+02,4.08281
-6.348e+02,4.08312
-6.346e+02,4.08344
-6.344e+02,4.08219
-6.342e+02,4.08219
-6.340e+02,4.08188
-6.338e+02,4.08219
-6.336e+02,4.08281
-6.334e+02,4.08312
-6.332e+02,4.08188
-6.330e+02,4.08281
-6.328e+02,4.08344
-6.326e+02,4.08344
-6.324e+02,4.08312
-6.322e+02,4.08437
-6.320e+02,4.08531
-6.318e+02,4.08656
-6.316e+02,4.08531
-6.314e+02,4.08437
-6.312e+02,4.085
-6.310e+02,4.08469
-6.308e+02,4.08375
-6.306e+02,4.085
-6.304e+02,4.08469
-6.302e+02,4.08406
-6.300e+02,4.08375
-6.298e+02,4.08312
-6.296e+02,4.08312
-6.294e+02,4.08375
-6.292e+02,4.08406
-6.290e+02,4.08531
-6.288e+02,4.08563
-6.286e+02,4.08469
-6.284e+02,4.08375
-6.282e+02,4.08437
-6.280e+02,4.08375
-6.278e+02,4.08437
-6.276e+02,4.085
-6.274e+02,4.08469
-6.272e+02,4.08406
-6.270e+02,4.08437
-6.268e+02,4.08406
-6.266e+02,4.08437
-6.264e+02,4.08469
-6.262e+02,4.08531
-6.260e+02,4.08563
-6.258e+02,4.08563
-6.256e+02,4.08594
-6.254e+02,4.08656
-6.252e+02,4.08656
-6.250e+02,4.08656
-6.248e+02,4.08625
-6.246e+02,4.08625
-6.244e+02,4.08563
-6.242e+02,4.08594
-6.240e+02,4.08594
-6.238e+02,4.08656
-6.236e+02,4.08625
-6.234e+02,4.08563
-6.232e+02,4.08531
-6.230e+02,4.08563
-6.228e+02,4.08656
-6.226e+02,4.08812
-6.224e+02,4.08719
-6.222e+02,4.0875
-6.220e+02,4.08688
-6.218e+02,4.08688
-6.216e+02,4.08594
-6.214e+02,4.08719
-6.212e+02,4.08688
-6.210e+02,4.08688
-6.208e+02,4.08844
-6.206e+02,4.08812
-6.204e+02,4.08719
-6.202e+02,4.08625
-6.200e+02,4.08656
-6.198e+02,4.08719
-6.196e+02,4.08844
-6.194e+02,4.08719
-6.192e+02,4.08719
-6.190e+02,4.08812
-6.188e+02,4.08906
-6.186e+02,4.08938
-6.184e+02,4.08906
-6.182e+02,4.08875
-6.180e+02,4.08844
-6.178e+02,4.08875
-6.176e+02,4.0875
-6.174e+02,4.08719
-6.172e+02,4.08688
-6.170e+02,4.08688
-6.168e+02,4.08812
-6.166e+02,4.08812
-6.164e+02,4.08688
-6.162e+02,4.08688
-6.160e+02,4.08844
-6.158e+02,4.08875
-6.156e+02,4.08906
-6.154e+02,4.08875
-6.152e+02,4.08906
-6.150e+02,4.08844
-6.148e+02,4.08875
-6.146e+02,4.08844
-6.144e+02,4.08812
-6.142e+02,4.08875
-6.140e+02,4.08938
-6.138e+02,4.08969
-6.136e+02,4.08969
-6.134e+02,4.09
-6.132e+02,4.09031
-6.130e+02,4.08969
-6.128e+02,4.08969
-6.126e+02,4.08938
-6.124e+02,4.08875
-6.122e+02,4.08906
-6.120e+02,4.08906
-6.118e+02,4.08875
-6.116e+02,4.08844
-6.114e+02,4.08938
-6.112e+02,4.08906
-6.110e+02,4.08906
-6.108e+02,4.09
-6.106e+02,4.08938
-6.104e+02,4.08906
-6.102e+02,4.08906
-6.100e+02,4.09
-6.098e+02,4.08844
-6.096e+02,4.08812
-6.094e+02,4.08812
-6.092e+02,4.08812
-6.090e+02,4.08844
-6.088e+02,4.08906
-6.086e+02,4.08938
-6.084e+02,4.08969
-6.082e+02,4.08906
-6.080e+02,4.08906
-6.078e+02,4.08875
-6.076e+02,4.08844
-6.074e+02,4.08812
-6.072e+02,4.08969
-6.070e+02,4.08906
-6.068e+02,4.08969
-6.066e+02,4.09
-6.064e+02,4.08844
-6.062e+02,4.0875
-6.060e+02,4.08906
-6.058e+02,4.08969
-6.056e+02,4.09
-6.054e+02,4.09
-6.052e+02,4.08969
-6.050e+02,4.08875
-6.048e+02,4.08844
-6.046e+02,4.08844
-6.044e+02,4.0875
-6.042e+02,4.08844
-6.040e+02,4.08938
-6.038e+02,4.08875
-6.036e+02,4.08875
-6.034e+02,4.08938
-6.032e+02,4.08906
-6.030e+02,4.08906
-6.028e+02,4.08875
-6.026e+02,4.08812
-6.024e+02,4.08844
-6.022e+02,4.08844
-6.020e+02,4.0875
-6.018e+02,4.0875
-6.016e+02,4.08812
-6.014e+02,4.0875
-6.012e+02,4.08875
-6.010e+02,4.08875
-6.008e+02,4.08938
-6.006e+02,4.08938
-6.004e+02,4.0875
-6.002e+02,4.08812
-6.000e+02,4.0875
-5.998e+02,4.0875
-5.996e+02,4.08906
-5.994e+02,4.09
-5.992e+02,4.08906
-5.990e+02,4.08875
-5.988e+02,4.08875
-5.986e+02,4.08875
-5.984e+02,4.08906
-5.982e+02,4.09031
-5.980e+02,4.08844
-5.978e+02,4.08906
-5.976e+02,4.08844
-5.974e+02,4.08906
-5.972e+02,4.08844
-5.970e+02,4.08812
-5.968e+02,4.08812
-5.966e+02,4.08938
-5.964e+02,4.09031
-5.962e+02,4.09031
-5.960e+02,4.08844
-5.958e+02,4.08906
-5.956e+02,4.09
-5.954e+02,4.09063
-5.952e+02,4.09094
-5.950e+02,4.09094
-5.948e+02,4.09031
-5.946e+02,4.08875
-5.944e+02,4.08844
-5.942e+02,4.08906
-5.940e+02,4.08969
-5.938e+02,4.08938
-5.936e+02,4.08844
-5.934e+02,4.08906
-5.932e+02,4.08938
-5.930e+02,4.08969
-5.928e+02,4.09031
-5.926e+02,4.09063
-5.924e+02,4.09063
-5.922e+02,4.08969
-5.920e+02,4.09
-5.918e+02,4.09031
-5.916e+02,4.09
-5.914e+02,4.09063
-5.912e+02,4.08938
-5.910e+02,4.08906
-5.908e+02,4.08938
-5.906e+02,4.08906
-5.904e+02,4.08969
-5.902e+02,4.09
-5.900e+02,4.08906
-5.898e+02,4.08938
-5.896e+02,4.08844
-5.894e+02,4.08906
-5.892e+02,4.08906
-5.890e+02,4.08938
-5.888e+02,4.08844
-5.886e+02,4.08875
-5.884e+02,4.08969
-5.882e+02,4.08875
-5.880e+02,4.08812
-5.878e+02,4.08906
-5.876e+02,4.08875
-5.874e+02,4.08938
-5.872e+02,4.08875
-5.870e+02,4.08875
-5.868e+02,4.08812
-5.866e+02,4.08688
-5.864e+02,4.08719
-5.862e+02,4.08812
-5.860e+02,4.08906
-5.858e+02,4.09
-5.856e+02,4.09031
-5.854e+02,4.09
-5.852e+02,4.09
-5.850e+02,4.08938
-5.848e+02,4.08938
-5.846e+02,4.09
-5.844e+02,4.08906
-5.842e+02,4.08812
-5.840e+02,4.08969
-5.838e+02,4.08938
-5.836e+02,4.08938
-5.834e+02,4.08844
-5.832e+02,4.08875
-5.830e+02,4.08906
-5.828e+02,4.08969
-5.826e+02,4.08969
-5.824e+02,4.09063
-5.822e+02,4.09063
-5.820e+02,4.08969
-5.818e+02,4.08969
-5.816e+02,4.09156
-5.814e+02,4.09156
-5.812e+02,4.09156
-5.810e+02,4.09
-5.808e+02,4.09094
-5.806e+02,4.09156
-5.804e+02,4.09219
-5.802e+02,4.09125
-5.800e+02,4.09031
-5.798e+02,4.09125
-5.796e+02,4.09094
-5.794e+02,4.09125
-5.792e+02,4.09094
-5.790e+02,4.09031
-5.788e+02,4.09063
-5.786e+02,4.09187
-5.784e+02,4.0925
-5.782e+02,4.09187
-5.780e+02,4.09219
-5.778e+02,4.09125
-5.776e+02,4.09156
-5.774e+02,4.09219
-5.772e+02,4.09187
-5.770e+02,4.09187
-5.768e+02,4.09156
-5.766e+02,4.09187
-5.764e+02,4.09063
-5.762e+02,4.09
-5.760e+02,4.09
-5.758e+02,4.09063
-5.756e+02,4.09094
-5.754e+02,4.09094
-5.752e+02,4.09094
-5.750e+02,4.09
-5.748e+02,4.09
-5.746e+02,4.09125
-5.744e+02,4.09094
-5.742e+02,4.0925
-5.740e+02,4.09187
-5.738e+02,4.09219
-5.736e+02,4.09156
-5.734e+02,4.09156
-5.732e+02,4.09156
-5.730e+02,4.09156
-5.728e+02,4.09219
-5.726e+02,4.09219
-5.724e+02,4.09156
-5.722e+02,4.09187
-5.720e+02,4.09094
-5.718e+02,4.09125
-5.716e+02,4.09125
-5.714e+02,4.09094
-5.712e+02,4.09219
-5.710e+02,4.09187
-5.708e+02,4.09219
-5.706e+02,4.0925
-5.704e+02,4.09125
-5.702e+02,4.09156
-5.700e+02,4.09125
-5.698e+02,4.09156
-5.696e+02,4.09156
-5.694e+02,4.0925
-5.692e+02,4.09156
-5.690e+02,4.09063
-5.688e+02,4.09094
-5.686e+02,4.09094
-5.684e+02,4.09031
-5.682e+02,4.09156
-5.680e+02,4.09125
-5.678e+02,4.09156
-5.676e+02,4.09187
-5.674e+02,4.09125
-5.672e+02,4.09156
-5.670e+02,4.09187
-5.668e+02,4.09063
-5.666e+02,4.09125
-5.664e+02,4.09094
-5.662e+02,4.09094
-5.660e+02,4.09156
-5.658e+02,4.09219
-5.656e+02,4.09063
-5.654e+02,4.09063
-5.652e+02,4.09063
-5.650e+02,4.09125
-5.648e+02,4.09156
-5.646e+02,4.09063
-5.644e+02,4.09125
-5.642e+02,4.09156
-5.640e+02,4.09156
-5.638e+02,4.0925
-5.636e+02,4.09219
-5.634e+02,4.09344
-5.632e+02,4.0925
-5.630e+02,4.09187
-5.628e+02,4.09187
-5.626e+02,4.09219
-5.624e+02,4.0925
-5.622e+02,4.09219
-5.620e+02,4.0925
-5.618e+02,4.09219
-5.616e+02,4.0925
-5.614e+02,4.09219
-5.612e+02,4.09125
-5.610e+02,4.09094
-5.608e+02,4.09281
-5.606e+02,4.09187
-5.604e+02,4.0925
-5.602e+02,4.09281
-5.600e+02,4.09344
-5.598e+02,4.09469
-5.596e+02,4.09469
-5.594e+02,4.09438
-5.592e+02,4.09438
-5.590e+02,4.09563
-5.588e+02,4.09594
-5.586e+02,4.09563
-5.584e+02,4.09563
-5.582e+02,4.095
-5.580e+02,4.095
-5.578e+02,4.09469
-5.576e+02,4.09406
-5.574e+02,4.09375
-5.572e+02,4.09469
-5.570e+02,4.09438
-5.568e+02,4.09469
-5.566e+02,4.09531
-5.564e+02,4.09625
-5.562e+02,4.09469
-5.560e+02,4.09469
-5.558e+02,4.09469
-5.556e+02,4.09469
-5.554e+02,4.09469
-5.552e+02,4.09344
-5.550e+02,4.095
-5.548e+02,4.09563
-5.546e+02,4.09406
-5.544e+02,4.095
-5.542e+02,4.09438
-5.540e+02,4.09406
-5.538e+02,4.09406
-5.536e+02,4.09344
-5.534e+02,4.09281
-5.532e+02,4.09281
-5.530e+02,4.09438
-5.528e+02,4.09531
-5.526e+02,4.09469
-5.524e+02,4.09531
-5.522e+02,4.095
-5.520e+02,4.095
-5.518e+02,4.095
-5.516e+02,4.09375
-5.514e+02,4.09344
-5.512e+02,4.09406
-5.510e+02,4.09344
-5.508e+02,4.0925
-5.506e+02,4.09281
-5.504e+02,4.09344
-5.502e+02,4.09219
-5.500e+02,4.09219
-5.498e+02,4.09344
-5.496e+02,4.09375
-5.494e+02,4.09281
-5.492e+02,4.09281
-5.490e+02,4.09406
-5.488e+02,4.09469
-5.486e+02,4.09438
-5.484e+02,4.09406
-5.482e+02,4.09438
-5.480e+02,4.09438
-5.478e+02,4.09375
-5.476e+02,4.09469
-5.474e+02,4.09375
-5.472e+02,4.09406
-5.470e+02,4.09375
-5.468e+02,4.09469
-5.466e+02,4.09375
-5.464e+02,4.09406
-5.462e+02,4.09438
-5.460e+02,4.09406
-5.458e+02,4.09406
-5.456e+02,4.09406
-5.454e+02,4.09281
-5.452e+02,4.09344
-5.450e+02,4.09281
-5.448e+02,4.09281
-5.446e+02,4.09281
-5.444e+02,4.09406
-5.442e+02,4.09438
-5.440e+02,4.09375
-5.438e+02,4.09344
-5.436e+02,4.09563
-5.434e+02,4.095
-5.432e+02,4.095
-5.430e+02,4.09469
-5.428e+02,4.09375
-5.426e+02,4.09438
-5.424e+02,4.09531
-5.422e+02,4.09531
-5.420e+02,4.095
-5.418e+02,4.09563
-5.416e+02,4.09563
-5.414e+02,4.09531
-5.412e+02,4.09563
-5.410e+02,4.09563
-5.408e+02,4.09594
-5.406e+02,4.09531
-5.404e+02,4.09594
-5.402e+02,4.09625
-5.400e+02,4.09594
-5.398e+02,4.09531
-5.396e+02,4.09531
-5.394e+02,4.09563
-5.392e+02,4.09594
-5.390e+02,4.09594
-5.388e+02,4.09563
-5.386e+02,4.09469
-5.384e+02,4.09469
-5.382e+02,4.09375
-5.380e+02,4.09438
-5.378e+02,4.09438
-5.376e+02,4.09375
-5.374e+02,4.09281
-5.372e+02,4.09469
-5.370e+02,4.09469
-5.368e+02,4.09375
-5.366e+02,4.09406
-5.364e+02,4.09438
-5.362e+02,4.0925
-5.360e+02,4.09344
-5.358e+02,4.09438
-5.356e+02,4.09281
-5.354e+02,4.09406
-5.352e+02,4.09469
-5.350e+02,4.09531
-5.348e+02,4.09281
-5.346e+02,4.09344
-5.344e+02,4.09406
-5.342e+02,4.09531
-5.340e+02,4.095
-5.338e+02,4.095
-5.336e+02,4.09594
-5.334e+02,4.09563
-5.332e+02,4.09563
-5.330e+02,4.09656
-5.328e+02,4.09531
-5.326e+02,4.09531
-5.324e+02,4.09531
-5.322e+02,4.095
-5.320e+02,4.09531
-5.318e+02,4.09531
-5.316e+02,4.09594
-5.314e+02,4.09531
-5.312e+02,4.09531
-5.310e+02,4.09531
-5.308e+02,4.09438
-5.306e+02,4.09469
-5.304e+02,4.095
-5.302e+02,4.09438
-5.300e+02,4.09469
-5.298e+02,4.09531
-5.296e+02,4.09594
-5.294e+02,4.09594
-5.292e+02,4.09625
-5.290e+02,4.09531
-5.288e+02,4.095
-5.286e+02,4.09531
-5.284e+02,4.09469
-5.282e+02,4.09563
-5.280e+02,4.09469
-5.278e+02,4.09594
-5.276e+02,4.09594
-5.274e+02,4.09563
-5.272e+02,4.09594
-5.270e+02,4.09563
-5.268e+02,4.09656
-5.266e+02,4.09625
-5.264e+02,4.09594
-5.262e+02,4.09656
-5.260e+02,4.09656
-5.258e+02,4.09594
-5.256e+02,4.09656
-5.254e+02,4.09625
-5.252e+02,4.09656
-5.250e+02,4.09687
-5.248e+02,4.09594
-5.246e+02,4.09594
-5.244e+02,4.09563
-5.242e+02,4.09563
-5.240e+02,4.09594
-5.238e+02,4.09656
-5.236e+02,4.09719
-5.234e+02,4.09625
-5.232e+02,4.09656
-5.230e+02,4.0975
-5.228e+02,4.09719
-5.226e+02,4.09625
-5.224e+02,4.09656
-5.222e+02,4.09656
-5.220e+02,4.09594
-5.218e+02,4.09594
-5.216e+02,4.09625
-5.214e+02,4.09594
-5.212e+02,4.09531
-5.210e+02,4.09531
-5.208e+02,4.09563
-5.206e+02,4.09625
-5.204e+02,4.09594
-5.202e+02,4.09625
-5.200e+02,4.09563
-5.198e+02,4.09469
-5.196e+02,4.09656
-5.194e+02,4.09656
-5.192e+02,4.09719
-5.190e+02,4.09531
-5.188e+02,4.09563
-5.186e+02,4.09563
-5.184e+02,4.09563
-5.182e+02,4.09438
-5.180e+02,4.09531
-5.178e+02,4.09531
-5.176e+02,4.09531
-5.174e+02,4.09594
-5.172e+02,4.09563
-5.170e+02,4.09625
-5.168e+02,4.09656
-5.166e+02,4.09625
-5.164e+02,4.09531
-5.162e+02,4.0975
-5.160e+02,4.0975
-5.158e+02,4.09625
-5.156e+02,4.09625
-5.154e+02,4.09594
-5.152e+02,4.09719
-5.150e+02,4.09687
-5.148e+02,4.09719
-5.146e+02,4.0975
-5.144e+02,4.09719
-5.142e+02,4.09719
-5.140e+02,4.09656
-5.138e+02,4.09687
-5.136e+02,4.09656
-5.134e+02,4.09594
-5.132e+02,4.09625
-5.130e+02,4.09656
-5.128e+02,4.09656
-5.126e+02,4.09625
-5.124e+02,4.095
-5.122e+02,4.095
-5.120e+02,4.09438
-5.118e+02,4.09438
-5.116e+02,4.09469
-5.114e+02,4.09594
-5.112e+02,4.095
-5.110e+02,4.09594
-5.108e+02,4.09531
-5.106e+02,4.09469
-5.104e+02,4.09344
-5.102e+02,4.09438
-5.100e+02,4.095
-5.098e+02,4.09531
-5.096e+02,4.095
-5.094e+02,4.09438
-5.092e+02,4.09344
-5.090e+02,4.09344
-5.088e+02,4.09469
-5.086e+02,4.09281
-5.084e+02,4.09406
-5.082e+02,4.095
-5.080e+02,4.09563
-5.078e+02,4.095
-5.076e+02,4.095
-5.074e+02,4.09563
-5.072e+02,4.09594
-5.070e+02,4.09656
-5.068e+02,4.095
-5.066e+02,4.09594
-5.064e+02,4.09563
-5.062e+02,4.09625
-5.060e+02,4.09625
-5.058e+02,4.09469
-5.056e+02,4.09469
-5.054e+02,4.09563
-5.052e+02,4.09594
-5.050e+02,4.09563
-5.048e+02,4.09625
-5.046e+02,4.09625
-5.044e+02,4.09563
-5.042e+02,4.09563
-5.040e+02,4.095
-5.038e+02,4.09531
-5.036e+02,4.09531
-5.034e+02,4.095
-5.032e+02,4.09563
-5.030e+02,4.09687
-5.028e+02,4.09469
-5.026e+02,4.09344
-5.024e+02,4.09469
-5.022e+02,4.09531
-5.020e+02,4.09469
-5.018e+02,4.095
-5.016e+02,4.095
-5.014e+02,4.09531
-5.012e+02,4.09469
-5.010e+02,4.095
-5.008e+02,4.09469
-5.006e+02,4.09563
-5.004e+02,4.09563
-5.002e+02,4.09563
-5.000e+02,4.09469
-4.998e+02,4.09375
-4.996e+02,4.09438
-4.994e+02,4.09594
-4.992e+02,4.09625
-4.990e+02,4.09594
-4.988e+02,4.09656
-4.986e+02,4.09594
-4.984e+02,4.05656
-4.982e+02,4.01438
-4.980e+02,3.99844
-4.978e+02,3.99719
-4.976e+02,3.99562
-4.974e+02,3.99594
-4.972e+02,3.99375
-4.970e+02,3.99313
-4.968e+02,3.99375
-4.966e+02,3.99313
-4.964e+02,3.99063
-4.962e+02,3.99125
-4.960e+02,3.99063
-4.958e+02,3.99094
-4.956e+02,3.99031
-4.954e+02,3.99
-4.952e+02,3.98906
-4.950e+02,3.9875
-4.948e+02,3.98625
-4.946e+02,3.98594
-4.944e+02,3.98563
-4.942e+02,3.98531
-4.940e+02,3.98531
-4.938e+02,3.98438
-4.936e+02,3.98438
-4.934e+02,3.98406
-4.932e+02,3.98375
-4.930e+02,3.98375
-4.928e+02,3.9825
-4.926e+02,3.98281
-4.924e+02,3.98094
-4.922e+02,3.98063
-4.920e+02,3.97938
-4.918e+02,3.97875
-4.916e+02,3.97906
-4.914e+02,3.97812
-4.912e+02,3.97844
-4.910e+02,3.97812
-4.908e+02,3.97781
-4.906e+02,3.97688
-4.904e+02,3.97656
-4.902e+02,3.97531
-4.900e+02,3.975
-4.898e+02,3.975
-4.896e+02,3.97406
-4.894e+02,3.97313
-4.892e+02,3.97313
-4.890e+02,3.97313
-4.888e+02,3.97344
-4.886e+02,3.97313
-4.884e+02,3.9725
-4.882e+02,3.97063
-4.880e+02,3.97125
-4.878e+02,3.97
-4.876e+02,3.96875
-4.874e+02,3.96781
-4.872e+02,3.96781
-4.870e+02,3.9675
-4.868e+02,3.96781
-4.866e+02,3.96719
-4.864e+02,3.96719
-4.862e+02,3.96625
-4.860e+02,3.96375
-4.858e+02,3.96594
-4.856e+02,3.96625
-4.854e+02,3.96531
-4.852e+02,3.965
-4.850e+02,3.96469
-4.848e+02,3.96406
-4.846e+02,3.96188
-4.844e+02,3.96281
-4.842e+02,3.96156
-4.840e+02,3.96125
-4.838e+02,3.96094
-4.836e+02,3.96
-4.834e+02,3.96063
-4.832e+02,3.96094
-4.830e+02,3.95906
-4.828e+02,3.95938
-4.826e+02,3.95906
-4.824e+02,3.95875
-4.822e+02,3.95906
-4.820e+02,3.95688
-4.818e+02,3.95656
-4.816e+02,3.95562
-4.814e+02,3.95531
-4.812e+02,3.95438
-4.810e+02,3.95438
-4.808e+02,3.95312
-4.806e+02,3.95312
-4.804e+02,3.95406
-4.802e+02,3.95375
-4.800e+02,3.95344
-4.798e+02,3.95219
-4.796e+02,3.95219
-4.794e+02,3.95219
-4.792e+02,3.9525
-4.790e+02,3.95281
-4.788e+02,3.95063
-4.786e+02,3.95063
-4.784e+02,3.94938
-4.782e+02,3.95031
-4.780e+02,3.94875
-4.778e+02,3.94875
-4.776e+02,3.94875
-4.774e+02,3.94906
-4.772e+02,3.94906
-4.770e+02,3.94844
-4.768e+02,3.94844
-4.766e+02,3.94813
-4.764e+02,3.94687
-4.762e+02,3.94656
-4.760e+02,3.94687
-4.758e+02,3.94719
-4.756e+02,3.94625
-4.754e+02,3.94625
-4.752e+02,3.94656
-4.750e+02,3.94531
-4.748e+02,3.945
-4.746e+02,3.945
-4.744e+02,3.94406
-4.742e+02,3.94406
-4.740e+02,3.94406
-4.738e+02,3.94406
-4.736e+02,3.94375
-4.734e+02,3.94281
-4.732e+02,3.94313
-4.730e+02,3.94375
-4.728e+02,3.94344
-4.726e+02,3.94281
-4.724e+02,3.94219
-4.722e+02,3.9425
-4.720e+02,3.9425
-4.718e+02,3.94313
-4.716e+02,3.9425
-4.714e+02,3.94219
-4.712e+02,3.94188
-4.710e+02,3.94063
-4.708e+02,3.94125
-4.706e+02,3.94188
-4.704e+02,3.94094
-4.702e+02,3.94094
-4.700e+02,3.94125
-4.698e+02,3.94031
-4.696e+02,3.94
-4.694e+02,3.93969
-4.692e+02,3.93844
-4.690e+02,3.9375
-4.688e+02,3.93781
-4.686e+02,3.93812
-4.684e+02,3.94
-4.682e+02,3.93781
-4.680e+02,3.93812
-4.678e+02,3.93844
-4.676e+02,3.93625
-4.674e+02,3.93656
-4.672e+02,3.93656
-4.670e+02,3.935
-4.668e+02,3.93406
-4.666e+02,3.93438
-4.664e+02,3.93438
-4.662e+02,3.93406
-4.660e+02,3.93438
-4.658e+02,3.93625
-4.656e+02,3.935
-4.654e+02,3.93562
-4.652e+02,3.93625
-4.650e+02,3.93531
-4.648e+02,3.93562
-4.646e+02,3.93531
-4.644e+02,3.935
-4.642e+02,3.935
-4.640e+02,3.93406
-4.638e+02,3.93344
-4.636e+02,3.9325
-4.634e+02,3.93281
-4.632e+02,3.93188
-4.630e+02,3.93156
-4.628e+02,3.93156
-4.626e+02,3.93156
-4.624e+02,3.93125
-4.622e+02,3.93063
-4.620e+02,3.93031
-4.618e+02,3.93
-4.616e+02,3.93094
-4.614e+02,3.93125
-4.612e+02,3.93031
-4.610e+02,3.93
-4.608e+02,3.93094
-4.606e+02,3.93063
-4.604e+02,3.93031
-4.602e+02,3.93031
-4.600e+02,3.92969
-4.598e+02,3.92938
-4.596e+02,3.92938
-4.594e+02,3.92813
-4.592e+02,3.92938
-4.590e+02,3.93
-4.588e+02,3.92969
-4.586e+02,3.93
-4.584e+02,3.92906
-4.582e+02,3.92813
-4.580e+02,3.92719
-4.578e+02,3.92687
-4.576e+02,3.9275
-4.574e+02,3.92687
-4.572e+02,3.92719
-4.570e+02,3.92563
-4.568e+02,3.92625
-4.566e+02,3.92594
-4.564e+02,3.92594
-4.562e+02,3.92719
-4.560e+02,3.92687
-4.558e+02,3.92625
-4.556e+02,3.92719
-4.554e+02,3.92594
-4.552e+02,3.92469
-4.550e+02,3.92469
-4.548e+02,3.925
-4.546e+02,3.925
-4.544e+02,3.92469
-4.542e+02,3.92437
-4.540e+02,3.92437
-4.538e+02,3.92375
-4.536e+02,3.92437
-4.534e+02,3.92406
-4.532e+02,3.92281
-4.530e+02,3.92406
-4.528e+02,3.9225
-4.526e+02,3.92219
-4.524e+02,3.9225
-4.522e+02,3.92281
-4.520e+02,3.92188
-4.518e+02,3.92344
-4.516e+02,3.92188
-4.514e+02,3.92063
-4.512e+02,3.92188
-4.510e+02,3.92156
-4.508e+02,3.92094
-4.506e+02,3.92406
-4.504e+02,3.92437
-4.502e+02,3.92344
-4.500e+02,3.92469
-4.498e+02,3.92469
-4.496e+02,3.925
-4.494e+02,3.92469
-4.492e+02,3.92531
-4.490e+02,3.92625
-4.488e+02,3.92687
-4.486e+02,3.92531
-4.484e+02,3.92594
-4.482e+02,3.92594
-4.480e+02,3.92594
-4.478e+02,3.92531
-4.476e+02,3.92531
-4.474e+02,3.925
-4.472e+02,3.92625
-4.470e+02,3.92563
-4.468e+02,3.92563
-4.466e+02,3.92625
-4.464e+02,3.92531
-4.462e+02,3.92469
-4.460e+02,3.92594
-4.458e+02,3.92656
-4.456e+02,3.92531
-4.454e+02,3.92531
-4.452e+02,3.92469
-4.450e+02,3.92437
-4.448e+02,3.92531
-4.446e+02,3.92594
-4.444e+02,3.925
-4.442e+02,3.92563
-4.440e+02,3.92563
-4.438e+02,3.92531
-4.436e+02,3.92563
-4.434e+02,3.925
-4.432e+02,3.92375
-4.430e+02,3.92344
-4.428e+02,3.92406
-4.426e+02,3.92531
-4.424e+02,3.925
-4.422e+02,3.925
-4.420e+02,3.92406
-4.418e+02,3.92406
-4.416e+02,3.92437
-4.414e+02,3.92469
-4.412e+02,3.92469
-4.410e+02,3.92469
-4.408e+02,3.92375
-4.406e+02,3.92281
-4.404e+02,3.92344
-4.402e+02,3.92406
-4.400e+02,3.92375
-4.398e+02,3.92219
-4.396e+02,3.92219
-4.394e+02,3.92219
-4.392e+02,3.92125
-4.390e+02,3.92188
-4.388e+02,3.92094
-4.386e+02,3.92031
-4.384e+02,3.92125
-4.382e+02,3.92219
-4.380e+02,3.92219
-4.378e+02,3.92188
-4.376e+02,3.92156
-4.374e+02,3.92063
-4.372e+02,3.92125
-4.370e+02,3.92125
-4.368e+02,3.92094
-4.366e+02,3.92094
-4.364e+02,3.92094
-4.362e+02,3.92156
-4.360e+02,3.92156
-4.358e+02,3.92125
-4.356e+02,3.92
-4.354e+02,3.92125
-4.352e+02,3.92156
-4.350e+02,3.92094
-4.348e+02,3.92188
-4.346e+02,3.92094
-4.344e+02,3.92063
-4.342e+02,3.92094
-4.340e+02,3.92
-4.338e+02,3.92031
-4.336e+02,3.92031
-4.334e+02,3.91969
-4.332e+02,3.91906
-4.330e+02,3.91813
-4.328e+02,3.91719
-4.326e+02,3.91844
-4.324e+02,3.91844
-4.322e+02,3.91719
-4.320e+02,3.91813
-4.318e+02,3.91656
-4.316e+02,3.91562
-4.314e+02,3.9175
-4.312e+02,3.91906
-4.310e+02,3.91844
-4.308e+02,3.91688
-4.306e+02,3.91688
-4.304e+02,3.915
-4.302e+02,3.91562
-4.300e+02,3.915
-4.298e+02,3.91531
-4.296e+02,3.91656
-4.294e+02,3.91625
-4.292e+02,3.91656
-4.290e+02,3.91656
-4.288e+02,3.91625
-4.286e+02,3.91656
-4.284e+02,3.9175
-4.282e+02,3.91656
-4.280e+02,3.9175
-4.278e+02,3.9175
-4.276e+02,3.91688
-4.274e+02,3.91813
-4.272e+02,3.9175
-4.270e+02,3.91719
-4.268e+02,3.91719
-4.266e+02,3.91656
-4.264e+02,3.91625
-4.262e+02,3.91625
-4.260e+02,3.91656
-4.258e+02,3.91594
-4.256e+02,3.91594
-4.254e+02,3.91562
-4.252e+02,3.91625
-4.250e+02,3.91562
-4.248e+02,3.91594
-4.246e+02,3.91625
-4.244e+02,3.91594
-4.242e+02,3.91656
-4.240e+02,3.91656
-4.238e+02,3.91656
-4.236e+02,3.91719
-4.234e+02,3.91656
-4.232e+02,3.91688
-4.230e+02,3.91656
-4.228e+02,3.91625
-4.226e+02,3.91656
-4.224e+02,3.91594
-4.222e+02,3.91562
-4.220e+02,3.91562
-4.218e+02,3.915
-4.216e+02,3.91594
-4.214e+02,3.91531
-4.212e+02,3.91438
-4.210e+02,3.915
-4.208e+02,3.915
-4.206e+02,3.91531
-4.204e+02,3.91562
-4.202e+02,3.91531
-4.200e+02,3.91344
-4.198e+02,3.91312
-4.196e+02,3.91375
-4.194e+02,3.915
-4.192e+02,3.91469
-4.190e+02,3.91406
-4.188e+02,3.91344
-4.186e+02,3.91281
-4.184e+02,3.91375
-4.182e+02,3.91406
-4.180e+02,3.91406
-4.178e+02,3.91438
-4.176e+02,3.91406
-4.174e+02,3.91375
-4.172e+02,3.91219
-4.170e+02,3.91156
-4.168e+02,3.91312
-4.166e+02,3.91312
-4.164e+02,3.91312
-4.162e+02,3.91156
-4.160e+02,3.91188
-4.158e+02,3.91219
-4.156e+02,3.91219
-4.154e+02,3.91281
-4.152e+02,3.91312
-4.150e+02,3.91219
-4.148e+02,3.91219
-4.146e+02,3.91094
-4.144e+02,3.91094
-4.142e+02,3.91063
-4.140e+02,3.90906
-4.138e+02,3.91
-4.136e+02,3.91188
-4.134e+02,3.91188
-4.132e+02,3.91031
-4.130e+02,3.91031
-4.128e+02,3.90969
-4.126e+02,3.91063
-4.124e+02,3.91063
-4.122e+02,3.91063
-4.120e+02,3.91
-4.118e+02,3.90969
-4.116e+02,3.91063
-4.114e+02,3.91031
-4.112e+02,3.91156
-4.110e+02,3.91188
-4.108e+02,3.91188
-4.106e+02,3.91188
-4.104e+02,3.91188
-4.102e+02,3.91094
-4.100e+02,3.91125
-4.098e+02,3.91031
-4.096e+02,3.91031
-4.094e+02,3.90969
-4.092e+02,3.90969
-4.090e+02,3.90844
-4.088e+02,3.90906
-4.086e+02,3.91031
-4.084e+02,3.91063
-4.082e+02,3.91
-4.080e+02,3.91
-4.078e+02,3.91031
-4.076e+02,3.91031
-4.074e+02,3.91063
-4.072e+02,3.91094
-4.070e+02,3.91031
-4.068e+02,3.91094
-4.066e+02,3.91156
-4.064e+02,3.91156
-4.062e+02,3.91
-4.060e+02,3.90844
-4.058e+02,3.90938
-4.056e+02,3.91063
-4.054e+02,3.91031
-4.052e+02,3.90938
-4.050e+02,3.90781
-4.048e+02,3.91
-4.046e+02,3.90813
-4.044e+02,3.9075
-4.042e+02,3.90844
-4.040e+02,3.90813
-4.038e+02,3.90813
-4.036e+02,3.9075
-4.034e+02,3.90687
-4.032e+02,3.9075
-4.030e+02,3.90656
-4.028e+02,3.90656
-4.026e+02,3.90656
-4.024e+02,3.90625
-4.022e+02,3.90625
-4.020e+02,3.90563
-4.018e+02,3.90563
-4.016e+02,3.90594
-4.014e+02,3.90563
-4.012e+02,3.90594
-4.010e+02,3.90594
-4.008e+02,3.90687
-4.006e+02,3.90656
-4.004e+02,3.90687
-4.002e+02,3.90594
-4.000e+02,3.90625
-3.998e+02,3.90594
-3.996e+02,3.90531
-3.994e+02,3.90563
-3.992e+02,3.90531
-3.990e+02,3.90563
-3.988e+02,3.905
-3.986e+02,3.905
-3.984e+02,3.90563
-3.982e+02,3.905
-3.980e+02,3.90594
-3.978e+02,3.90687
-3.976e+02,3.90563
-3.974e+02,3.90563
-3.972e+02,3.90563
-3.970e+02,3.90563
-3.968e+02,3.90594
-3.966e+02,3.90594
-3.964e+02,3.90531
-3.962e+02,3.90531
-3.960e+02,3.90563
-3.958e+02,3.90531
-3.956e+02,3.90469
-3.954e+02,3.90375
-3.952e+02,3.90563
-3.950e+02,3.90531
-3.948e+02,3.905
-3.946e+02,3.90531
-3.944e+02,3.90563
-3.942e+02,3.90531
-3.940e+02,3.90531
-3.938e+02,3.90531
-3.936e+02,3.90563
-3.934e+02,3.90563
-3.932e+02,3.90563
-3.930e+02,3.90594
-3.928e+02,3.90563
-3.926e+02,3.90594
-3.924e+02,3.90563
-3.922e+02,3.90531
-3.920e+02,3.90437
-3.918e+02,3.90469
-3.916e+02,3.90469
-3.914e+02,3.90375
-3.912e+02,3.90313
-3.910e+02,3.90344
-3.908e+02,3.90375
-3.906e+02,3.90313
-3.904e+02,3.90375
-3.902e+02,3.90313
-3.900e+02,3.90437
-3.898e+02,3.90406
-3.896e+02,3.90406
-3.894e+02,3.90469
-3.892e+02,3.90437
-3.890e+02,3.90437
-3.888e+02,3.90375
-3.886e+02,3.90406
-3.884e+02,3.90437
-3.882e+02,3.90313
-3.880e+02,3.9025
-3.878e+02,3.90344
-3.876e+02,3.90375
-3.874e+02,3.90313
-3.872e+02,3.90313
-3.870e+02,3.90344
-3.868e+02,3.90375
-3.866e+02,3.90406
-3.864e+02,3.90313
-3.862e+02,3.90281
-3.860e+02,3.90313
-3.858e+02,3.90344
-3.856e+02,3.90281
-3.854e+02,3.90281
-3.852e+02,3.90344
-3.850e+02,3.90313
-3.848e+02,3.90313
-3.846e+02,3.90281
-3.844e+02,3.90281
-3.842e+02,3.90281
-3.840e+02,3.90063
-3.838e+02,3.90094
-3.836e+02,3.90094
-3.834e+02,3.90125
-3.832e+02,3.90219
-3.830e+02,3.90156
-3.828e+02,3.90063
-3.826e+02,3.90125
-3.824e+02,3.90031
-3.822e+02,3.90094
-3.820e+02,3.90156
-3.818e+02,3.90156
-3.816e+02,3.90031
-3.814e+02,3.9
-3.812e+02,3.90094
-3.810e+02,3.90156
-3.808e+02,3.90219
-3.806e+02,3.90125
-3.804e+02,3.90125
-3.802e+02,3.90094
-3.800e+02,3.90031
-3.798e+02,3.90031
-3.796e+02,3.90031
-3.794e+02,3.90063
-3.792e+02,3.90219
-3.790e+02,3.90125
-3.788e+02,3.90094
-3.786e+02,3.90125
-3.784e+02,3.90156
-3.782e+02,3.90094
-3.780e+02,3.90031
-3.778e+02,3.89969
-3.776e+02,3.90031
-3.774e+02,3.90031
-3.772e+02,3.89906
-3.770e+02,3.89938
-3.768e+02,3.89938
-3.766e+02,3.89969
-3.764e+02,3.90031
-3.762e+02,3.90031
-3.760e+02,3.89938
-3.758e+02,3.89938
-3.756e+02,3.89938
-3.754e+02,3.90031
-3.752e+02,3.9
-3.750e+02,3.89969
-3.748e+02,3.89969
-3.746e+02,3.9
-3.744e+02,3.90031
-3.742e+02,3.90031
-3.740e+02,3.89969
-3.738e+02,3.9
-3.736e+02,3.90063
-3.734e+02,3.90063
-3.732e+02,3.90094
-3.730e+02,3.9025
-3.728e+02,3.9025
-3.726e+02,3.90063
-3.724e+02,3.9
-3.722e+02,3.89969
-3.720e+02,3.9
-3.718e+02,3.89875
-3.716e+02,3.89875
-3.714e+02,3.89938
-3.712e+02,3.89938
-3.710e+02,3.89906
-3.708e+02,3.89906
-3.706e+02,3.89844
-3.704e+02,3.89844
-3.702e+02,3.89781
-3.700e+02,3.89813
-3.698e+02,3.89813
-3.696e+02,3.89781
-3.694e+02,3.89813
-3.692e+02,3.89906
-3.690e+02,3.89938
-3.688e+02,3.89875
-3.686e+02,3.89844
-3.684e+02,3.89844
-3.682e+02,3.89781
-3.680e+02,3.89813
-3.678e+02,3.89938
-3.676e+02,3.89875
-3.674e+02,3.89813
-3.672e+02,3.89906
-3.670e+02,3.89875
-3.668e+02,3.89813
-3.666e+02,3.89813
-3.664e+02,3.89813
-3.662e+02,3.89906
-3.660e+02,3.89938
-3.658e+02,3.89938
-3.656e+02,3.89938
-3.654e+02,3.89938
-3.652e+02,3.89938
-3.650e+02,3.8975
-3.648e+02,3.89625
-3.646e+02,3.89813
-3.644e+02,3.8975
-3.642e+02,3.8975
-3.640e+02,3.8975
-3.638e+02,3.89719
-3.636e+02,3.89844
-3.634e+02,3.89781
-3.632e+02,3.89875
-3.630e+02,3.89813
-3.628e+02,3.8975
-3.626e+02,3.89688
-3.624e+02,3.89625
-3.622e+02,3.89594
-3.620e+02,3.89594
-3.618e+02,3.89625
-3.616e+02,3.89594
-3.614e+02,3.89625
-3.612e+02,3.89562
-3.610e+02,3.89781
-3.608e+02,3.89844
-3.606e+02,3.8975
-3.604e+02,3.89781
-3.602e+02,3.8975
-3.600e+02,3.89719
-3.598e+02,3.89719
-3.596e+02,3.89688
-3.594e+02,3.8975
-3.592e+02,3.8975
-3.590e+02,3.89688
-3.588e+02,3.89688
-3.586e+02,3.89719
-3.584e+02,3.89781
-3.582e+02,3.8975
-3.580e+02,3.89781
-3.578e+02,3.89781
-3.576e+02,3.89688
-3.574e+02,3.89562
-3.572e+02,3.89562
-3.570e+02,3.89562
-3.568e+02,3.89531
-3.566e+02,3.89625
-3.564e+02,3.89562
-3.562e+02,3.89531
-3.560e+02,3.89625
-3.558e+02,3.89625
-3.556e+02,3.89531
-3.554e+02,3.89562
-3.552e+02,3.89562
-3.550e+02,3.89531
-3.548e+02,3.89562
-3.546e+02,3.89531
-3.544e+02,3.89562
-3.542e+02,3.89719
-3.540e+02,3.89688
-3.538e+02,3.89719
-3.536e+02,3.89719
-3.534e+02,3.89562
-3.532e+02,3.89562
-3.530e+02,3.89688
-3.528e+02,3.89688
-3.526e+02,3.89625
-3.524e+02,3.89594
-3.522e+02,3.89469
-3.520e+02,3.89469
-3.518e+02,3.89438
-3.516e+02,3.89406
-3.514e+02,3.89406
-3.512e+02,3.89375
-3.510e+02,3.89375
-3.508e+02,3.89344
-3.506e+02,3.89375
-3.504e+02,3.89406
-3.502e+02,3.89469
-3.500e+02,3.89469
-3.498e+02,3.89562
-3.496e+02,3.89469
-3.494e+02,3.89406
-3.492e+02,3.89375
-3.490e+02,3.89469
-3.488e+02,3.89375
-3.486e+02,3.89312
-3.484e+02,3.89344
-3.482e+02,3.89438
-3.480e+02,3.89406
-3.478e+02,3.89375
-3.476e+02,3.89375
-3.474e+02,3.89406
-3.472e+02,3.89375
-3.470e+02,3.89406
-3.468e+02,3.89312
-3.466e+02,3.89344
-3.464e+02,3.89438
-3.462e+02,3.89312
-3.460e+02,3.89281
-3.458e+02,3.89219
-3.456e+02,3.8925
-3.454e+02,3.8925
-3.452e+02,3.89219
-3.450e+02,3.89219
-3.448e+02,3.89219
-3.446e+02,3.89156
-3.444e+02,3.8925
-3.442e+02,3.89312
-3.440e+02,3.8925
-3.438e+02,3.89188
-3.436e+02,3.89094
-3.434e+02,3.89156
-3.432e+02,3.89094
-3.430e+02,3.89
-3.428e+02,3.89219
-3.426e+02,3.89188
-3.424e+02,3.89031
-3.422e+02,3.89062
-3.420e+02,3.89219
-3.418e+02,3.89094
-3.416e+02,3.89188
-3.414e+02,3.89188
-3.412e+02,3.89281
-3.410e+02,3.89375
-3.408e+02,3.89219
-3.406e+02,3.89188
-3.404e+02,3.89188
-3.402e+02,3.89094
-3.400e+02,3.89094
-3.398e+02,3.89094
-3.396e+02,3.89094
-3.394e+02,3.89094
-3.392e+02,3.89156
-3.390e+02,3.89094
-3.388e+02,3.89094
-3.386e+02,3.89188
-3.384e+02,3.89156
-3.382e+02,3.89094
-3.380e+02,3.89156
-3.378e+02,3.89094
-3.376e+02,3.89094
-3.374e+02,3.89031
-3.372e+02,3.89094
-3.370e+02,3.89
-3.368e+02,3.89062
-3.366e+02,3.89062
-3.364e+02,3.89062
-3.362e+02,3.89
-3.360e+02,3.89031
-3.358e+02,3.89031
-3.356e+02,3.89031
-3.354e+02,3.88969
-3.352e+02,3.88969
-3.350e+02,3.89
-3.348e+02,3.88969
-3.346e+02,3.89031
-3.344e+02,3.89031
-3.342e+02,3.88844
-3.340e+02,3.88875
-3.338e+02,3.88906
-3.336e+02,3.89
-3.334e+02,3.88844
-3.332e+02,3.88906
-3.330e+02,3.88875
-3.328e+02,3.88844
-3.326e+02,3.88813
-3.324e+02,3.88781
-3.322e+02,3.8875
-3.320e+02,3.8875
-3.318e+02,3.88781
-3.316e+02,3.88813
-3.314e+02,3.88813
-3.312e+02,3.88875
-3.310e+02,3.88906
-3.308e+02,3.88844
-3.306e+02,3.88844
-3.304e+02,3.88844
-3.302e+02,3.88719
-3.300e+02,3.88688
-3.298e+02,3.8875
-3.296e+02,3.8875
-3.294e+02,3.88813
-3.292e+02,3.88781
-3.290e+02,3.88813
-3.288e+02,3.8875
-3.286e+02,3.88813
-3.284e+02,3.88688
-3.282e+02,3.8875
-3.280e+02,3.88719
-3.278e+02,3.88719
-3.276e+02,3.88688
-3.274e+02,3.88688
-3.272e+02,3.88781
-3.270e+02,3.8875
-3.268e+02,3.88688
-3.266e+02,3.88688
-3.264e+02,3.88719
-3.262e+02,3.88719
-3.260e+02,3.88719
-3.258e+02,3.88875
-3.256e+02,3.88625
-3.254e+02,3.88656
-3.252e+02,3.88688
-3.250e+02,3.88563
-3.248e+02,3.88563
-3.246e+02,3.88656
-3.244e+02,3.88656
-3.242e+02,3.88688
-3.240e+02,3.88688
-3.238e+02,3.88688
-3.236e+02,3.88656
-3.234e+02,3.88625
-3.232e+02,3.88625
-3.230e+02,3.8875
-3.228e+02,3.88688
-3.226e+02,3.88688
-3.224e+02,3.88563
-3.222e+02,3.88563
-3.220e+02,3.88563
-3.218e+02,3.88531
-3.216e+02,3.88625
-3.214e+02,3.88563
-3.212e+02,3.885
-3.210e+02,3.885
-3.208e+02,3.88531
-3.206e+02,3.88625
-3.204e+02,3.88625
-3.202e+02,3.88656
-3.200e+02,3.88625
-3.198e+02,3.88625
-3.196e+02,3.88531
-3.194e+02,3.885
-3.192e+02,3.88375
-3.190e+02,3.88469
-3.188e+02,3.88469
-3.186e+02,3.88437
-3.184e+02,3.885
-3.182e+02,3.885
-3.180e+02,3.88344
-3.178e+02,3.88375
-3.176e+02,3.88313
-3.174e+02,3.8825
-3.172e+02,3.88281
-3.170e+02,3.88344
-3.168e+02,3.88344
-3.166e+02,3.88469
-3.164e+02,3.88406
-3.162e+02,3.88344
-3.160e+02,3.88469
-3.158e+02,3.88375
-3.156e+02,3.88375
-3.154e+02,3.88469
-3.152e+02,3.88406
-3.150e+02,3.88375
-3.148e+02,3.88406
-3.146e+02,3.88313
-3.144e+02,3.88281
-3.142e+02,3.88375
-3.140e+02,3.88469
-3.138e+02,3.885
-3.136e+02,3.88531
-3.134e+02,3.885
-3.132e+02,3.88437
-3.130e+02,3.88437
-3.128e+02,3.88563
-3.126e+02,3.88437
-3.124e+02,3.88375
-3.122e+02,3.88437
-3.120e+02,3.88406
-3.118e+02,3.88406
-3.116e+02,3.8825
-3.114e+02,3.88344
-3.112e+02,3.88344
-3.110e+02,3.88406
-3.108e+02,3.88375
-3.106e+02,3.88344
-3.104e+02,3.88344
-3.102e+02,3.88469
-3.100e+02,3.88437
-3.098e+02,3.88437
-3.096e+02,3.88406
-3.094e+02,3.88406
-3.092e+02,3.88344
-3.090e+02,3.88313
-3.088e+02,3.88375
-3.086e+02,3.88437
-3.084e+02,3.88281
-3.082e+02,3.88344
-3.080e+02,3.88344
-3.078e+02,3.88281
-3.076e+02,3.88313
-3.074e+02,3.8825
-3.072e+02,3.8825
-3.070e+02,3.88281
-3.068e+02,3.88375
-3.066e+02,3.88375
-3.064e+02,3.88219
-3.062e+02,3.88219
-3.060e+02,3.88281
-3.058e+02,3.8825
-3.056e+02,3.88219
-3.054e+02,3.8825
-3.052e+02,3.88219
-3.050e+02,3.88156
-3.048e+02,3.88156
-3.046e+02,3.88156
-3.044e+02,3.88125
-3.042e+02,3.88187
-3.040e+02,3.88187
-3.038e+02,3.88281
-3.036e+02,3.8825
-3.034e+02,3.88219
-3.032e+02,3.88187
-3.030e+02,3.88187
-3.028e+02,3.88219
-3.026e+02,3.8825
-3.024e+02,3.88187
-3.022e+02,3.88156
-3.020e+02,3.88156
-3.018e+02,3.88187
-3.016e+02,3.88219
-3.014e+02,3.88281
-3.012e+02,3.88187
-3.010e+02,3.88156
-3.008e+02,3.88187
-3.006e+02,3.88094
-3.004e+02,3.88031
-3.002e+02,3.88031
-3.000e+02,3.88156
-2.998e+02,3.88156
-2.996e+02,3.88156
-2.994e+02,3.88125
-2.992e+02,3.88094
-2.990e+02,3.88
-2.988e+02,3.88094
-2.986e+02,3.88094
-2.984e+02,3.88125
-2.982e+02,3.88
-2.980e+02,3.87969
-2.978e+02,3.88125
-2.976e+02,3.88125
-2.974e+02,3.87969
-2.972e+02,3.88
-2.970e+02,3.88094
-2.968e+02,3.88
-2.966e+02,3.88125
-2.964e+02,3.88125
-2.962e+02,3.88125
-2.960e+02,3.87938
-2.958e+02,3.88
-2.956e+02,3.88
-2.954e+02,3.88156
-2.952e+02,3.88094
-2.950e+02,3.88
-2.948e+02,3.87969
-2.946e+02,3.87938
-2.944e+02,3.87938
-2.942e+02,3.87969
-2.940e+02,3.87969
-2.938e+02,3.87969
-2.936e+02,3.87969
-2.934e+02,3.87938
-2.932e+02,3.87906
-2.930e+02,3.87906
-2.928e+02,3.87875
-2.926e+02,3.87875
-2.924e+02,3.8775
-2.922e+02,3.8775
-2.920e+02,3.87781
-2.918e+02,3.87781
-2.916e+02,3.87875
-2.914e+02,3.87906
-2.912e+02,3.87875
-2.910e+02,3.87813
-2.908e+02,3.87875
-2.906e+02,3.87875
-2.904e+02,3.87938
-2.902e+02,3.88031
-2.900e+02,3.88031
-2.898e+02,3.87875
-2.896e+02,3.87781
-2.894e+02,3.87875
-2.892e+02,3.87781
-2.890e+02,3.87781
-2.888e+02,3.87781
-2.886e+02,3.87875
-2.884e+02,3.87875
-2.882e+02,3.87875
-2.880e+02,3.87906
-2.878e+02,3.87875
-2.876e+02,3.87844
-2.874e+02,3.87906
-2.872e+02,3.87938
-2.870e+02,3.87969
-2.868e+02,3.87813
-2.866e+02,3.8775
-2.864e+02,3.87688
-2.862e+02,3.87719
-2.860e+02,3.8775
-2.858e+02,3.87719
-2.856e+02,3.8775
-2.854e+02,3.87781
-2.852e+02,3.87844
-2.850e+02,3.87813
-2.848e+02,3.8775
-2.846e+02,3.87875
-2.844e+02,3.87813
-2.842e+02,3.87781
-2.840e+02,3.87781
-2.838e+02,3.87781
-2.836e+02,3.87781
-2.834e+02,3.87844
-2.832e+02,3.87844
-2.830e+02,3.87875
-2.828e+02,3.87844
-2.826e+02,3.87875
-2.824e+02,3.87906
-2.822e+02,3.88
-2.820e+02,3.87875
-2.818e+02,3.87813
-2.816e+02,3.87813
-2.814e+02,3.87844
-2.812e+02,3.87781
-2.810e+02,3.87844
-2.808e+02,3.87875
-2.806e+02,3.87844
-2.804e+02,3.87781
-2.802e+02,3.87688
-2.800e+02,3.87594
-2.798e+02,3.87281
-2.796e+02,3.87312
-2.794e+02,3.87656
-2.792e+02,3.87656
-2.790e+02,3.87656
-2.788e+02,3.87656
-2.786e+02,3.87656
-2.784e+02,3.87625
-2.782e+02,3.8775
-2.780e+02,3.87688
-2.778e+02,3.87688
-2.776e+02,3.87656
-2.774e+02,3.87688
-2.772e+02,3.87656
-2.770e+02,3.87562
-2.768e+02,3.87594
-2.766e+02,3.87625
-2.764e+02,3.87625
-2.762e+02,3.87656
-2.760e+02,3.87719
-2.758e+02,3.87688
-2.756e+02,3.87688
-2.754e+02,3.87688
-2.752e+02,3.87688
-2.750e+02,3.87625
-2.748e+02,3.875
-2.746e+02,3.875
-2.744e+02,3.87594
-2.742e+02,3.87656
-2.740e+02,3.87562
-2.738e+02,3.875
-2.736e+02,3.875
-2.734e+02,3.87562
-2.732e+02,3.87562
-2.730e+02,3.87594
-2.728e+02,3.87469
-2.726e+02,3.875
-2.724e+02,3.875
-2.722e+02,3.87469
-2.720e+02,3.87375
-2.718e+02,3.87406
-2.716e+02,3.87344
-2.714e+02,3.87406
-2.712e+02,3.875
-2.710e+02,3.87406
-2.708e+02,3.87375
-2.706e+02,3.87375
-2.704e+02,3.87312
-2.702e+02,3.87312
-2.700e+02,3.87375
-2.698e+02,3.87344
-2.696e+02,3.87375
-2.694e+02,3.87438
-2.692e+02,3.87312
-2.690e+02,3.87312
-2.688e+02,3.87312
-2.686e+02,3.87375
-2.684e+02,3.87281
-2.682e+02,3.87312
-2.680e+02,3.8725
-2.678e+02,3.86813
-2.676e+02,3.86781
-2.674e+02,3.86813
-2.672e+02,3.86719
-2.670e+02,3.86719
-2.668e+02,3.86625
-2.666e+02,3.86625
-2.664e+02,3.86625
-2.662e+02,3.86719
-2.660e+02,3.86719
-2.658e+02,3.86656
-2.656e+02,3.86625
-2.654e+02,3.86656
-2.652e+02,3.86625
-2.650e+02,3.86563
-2.648e+02,3.86437
-2.646e+02,3.86531
-2.644e+02,3.86625
-2.642e+02,3.86594
-2.640e+02,3.86625
-2.638e+02,3.86719
-2.636e+02,3.86625
-2.634e+02,3.86625
-2.632e+02,3.86656
-2.630e+02,3.86656
-2.628e+02,3.86656
-2.626e+02,3.86625
-2.624e+02,3.86656
-2.622e+02,3.86656
-2.620e+02,3.86563
-2.618e+02,3.86563
-2.616e+02,3.865
-2.614e+02,3.86344
-2.612e+02,3.86313
-2.610e+02,3.86375
-2.608e+02,3.86406
-2.606e+02,3.86406
-2.604e+02,3.865
-2.602e+02,3.86594
-2.600e+02,3.86531
-2.598e+02,3.86437
-2.596e+02,3.86406
-2.594e+02,3.86375
-2.592e+02,3.86375
-2.590e+02,3.86406
-2.588e+02,3.86375
-2.586e+02,3.86313
-2.584e+02,3.86375
-2.582e+02,3.86281
-2.580e+02,3.86344
-2.578e+02,3.8625
-2.576e+02,3.86219
-2.574e+02,3.86187
-2.572e+02,3.86156
-2.570e+02,3.8625
-2.568e+02,3.8625
-2.566e+02,3.86187
-2.564e+02,3.86187
-2.562e+02,3.86125
-2.560e+02,3.86219
-2.558e+02,3.8625
-2.556e+02,3.8625
-2.554e+02,3.86187
-2.552e+02,3.86187
-2.550e+02,3.86094
-2.548e+02,3.86156
-2.546e+02,3.86219
-2.544e+02,3.86187
-2.542e+02,3.86219
-2.540e+02,3.86187
-2.538e+02,3.86219
-2.536e+02,3.86187
-2.534e+02,3.86156
-2.532e+02,3.86219
-2.530e+02,3.86156
-2.528e+02,3.8625
-2.526e+02,3.86187
-2.524e+02,3.86156
-2.522e+02,3.86125
-2.520e+02,3.86187
-2.518e+02,3.86219
-2.516e+02,3.86063
-2.514e+02,3.86094
-2.512e+02,3.86063
-2.510e+02,3.86063
-2.508e+02,3.86031
-2.506e+02,3.86063
-2.504e+02,3.86031
-2.502e+02,3.86
-2.500e+02,3.86063
-2.498e+02,3.86125
-2.496e+02,3.86063
-2.494e+02,3.86094
-2.492e+02,3.86156
-2.490e+02,3.86187
-2.488e+02,3.8625
-2.486e+02,3.8625
-2.484e+02,3.8625
-2.482e+02,3.8625
-2.480e+02,3.86219
-2.478e+02,3.8625
-2.476e+02,3.8625
-2.474e+02,3.86125
-2.472e+02,3.85969
-2.470e+02,3.86063
-2.468e+02,3.85969
-2.466e+02,3.85969
-2.464e+02,3.85969
-2.462e+02,3.85906
-2.460e+02,3.86031
-2.458e+02,3.86
-2.456e+02,3.85969
-2.454e+02,3.86125
-2.452e+02,3.86063
-2.450e+02,3.86031
-2.448e+02,3.86031
-2.446e+02,3.86
-2.444e+02,3.86031
-2.442e+02,3.86
-2.440e+02,3.85875
-2.438e+02,3.85969
-2.436e+02,3.85969
-2.434e+02,3.86063
-2.432e+02,3.85906
-2.430e+02,3.85969
-2.428e+02,3.85969
-2.426e+02,3.85875
-2.424e+02,3.85813
-2.422e+02,3.85813
-2.420e+02,3.8575
-2.418e+02,3.85813
-2.416e+02,3.85844
-2.414e+02,3.85844
-2.412e+02,3.85844
-2.410e+02,3.85813
-2.408e+02,3.85844
-2.406e+02,3.85813
-2.404e+02,3.85844
-2.402e+02,3.85813
-2.400e+02,3.85719
-2.398e+02,3.85719
-2.396e+02,3.8575
-2.394e+02,3.85688
-2.392e+02,3.85781
-2.390e+02,3.85625
-2.388e+02,3.85656
-2.386e+02,3.85625
-2.384e+02,3.85688
-2.382e+02,3.85688
-2.380e+02,3.85656
-2.378e+02,3.85594
-2.376e+02,3.85531
-2.374e+02,3.85625
-2.372e+02,3.85688
-2.370e+02,3.85719
-2.368e+02,3.85719
-2.366e+02,3.85688
-2.364e+02,3.85719
-2.362e+02,3.85656
-2.360e+02,3.85719
-2.358e+02,3.8575
-2.356e+02,3.85688
-2.354e+02,3.85563
-2.352e+02,3.85625
-2.350e+02,3.85656
-2.348e+02,3.85688
-2.346e+02,3.85594
-2.344e+02,3.85594
-2.342e+02,3.8575
-2.340e+02,3.85688
-2.338e+02,3.8575
-2.336e+02,3.85656
-2.334e+02,3.85625
-2.332e+02,3.85531
-2.330e+02,3.85469
-2.328e+02,3.85531
-2.326e+02,3.85563
-2.324e+02,3.85656
-2.322e+02,3.85531
-2.320e+02,3.85531
-2.318e+02,3.85563
-2.316e+02,3.85531
-2.314e+02,3.85594
-2.312e+02,3.85594
-2.310e+02,3.85563
-2.308e+02,3.85656
-2.306e+02,3.85688
-2.304e+02,3.85625
-2.302e+02,3.85594
-2.300e+02,3.85625
-2.298e+02,3.85688
-2.296e+02,3.85563
-2.294e+02,3.85563
-2.292e+02,3.85563
-2.290e+02,3.85469
-2.288e+02,3.85469
-2.286e+02,3.85438
-2.284e+02,3.855
-2.282e+02,3.85531
-2.280e+02,3.85563
-2.278e+02,3.855
-2.276e+02,3.85594
-2.274e+02,3.85625
-2.272e+02,3.85594
-2.270e+02,3.85656
-2.268e+02,3.85656
-2.266e+02,3.85625
-2.264e+02,3.85531
-2.262e+02,3.85594
-2.260e+02,3.85625
-2.258e+02,3.85625
-2.256e+02,3.85656
-2.254e+02,3.85531
-2.252e+02,3.85563
-2.250e+02,3.85563
-2.248e+02,3.85531
-2.246e+02,3.855
-2.244e+02,3.85563
-2.242e+02,3.855
-2.240e+02,3.85469
-2.238e+02,3.85375
-2.236e+02,3.85344
-2.234e+02,3.85344
-2.232e+02,3.85375
-2.230e+02,3.85375
-2.228e+02,3.85438
-2.226e+02,3.85375
-2.224e+02,3.855
-2.222e+02,3.85438
-2.220e+02,3.85375
-2.218e+02,3.85438
-2.216e+02,3.85469
-2.214e+02,3.85531
-2.212e+02,3.85594
-2.210e+02,3.855
-2.208e+02,3.85438
-2.206e+02,3.855
-2.204e+02,3.855
-2.202e+02,3.85469
-2.200e+02,3.85469
-2.198e+02,3.85344
-2.196e+02,3.85281
-2.194e+02,3.85344
-2.192e+02,3.85344
-2.190e+02,3.85438
-2.188e+02,3.85312
-2.186e+02,3.85531
-2.184e+02,3.855
-2.182e+02,3.85469
-2.180e+02,3.855
-2.178e+02,3.855
-2.176e+02,3.85469
-2.174e+02,3.85469
-2.172e+02,3.85563
-2.170e+02,3.85312
-2.168e+02,3.85312
-2.166e+02,3.85344
-2.164e+02,3.85281
-2.162e+02,3.85375
-2.160e+02,3.85469
-2.158e+02,3.85469
-2.156e+02,3.85344
-2.154e+02,3.85375
-2.152e+02,3.85312
-2.150e+02,3.85219
-2.148e+02,3.8525
-2.146e+02,3.8525
-2.144e+02,3.85188
-2.142e+02,3.85281
-2.140e+02,3.85125
-2.138e+02,3.85219
-2.136e+02,3.85188
-2.134e+02,3.8525
-2.132e+02,3.85094
-2.130e+02,3.85156
-2.128e+02,3.85125
-2.126e+02,3.85156
-2.124e+02,3.85031
-2.122e+02,3.85031
-2.120e+02,3.85062
-2.118e+02,3.85188
-2.116e+02,3.85188
-2.114e+02,3.8525
-2.112e+02,3.85281
-2.110e+02,3.85312
-2.108e+02,3.8525
-2.106e+02,3.85281
-2.104e+02,3.85281
-2.102e+02,3.8525
-2.100e+02,3.85312
-2.098e+02,3.85312
-2.096e+02,3.85219
-2.094e+02,3.85156
-2.092e+02,3.85094
-2.090e+02,3.85156
-2.088e+02,3.85219
-2.086e+02,3.85219
-2.084e+02,3.85219
-2.082e+02,3.85219
-2.080e+02,3.85094
-2.078e+02,3.85156
-2.076e+02,3.85188
-2.074e+02,3.85094
-2.072e+02,3.85
-2.070e+02,3.85062
-2.068e+02,3.85094
-2.066e+02,3.85219
-2.064e+02,3.85156
-2.062e+02,3.85094
-2.060e+02,3.85062
-2.058e+02,3.84969
-2.056e+02,3.84938
-2.054e+02,3.85031
-2.052e+02,3.85062
-2.050e+02,3.85031
-2.048e+02,3.85062
-2.046e+02,3.84969
-2.044e+02,3.85
-2.042e+02,3.85
-2.040e+02,3.84969
-2.038e+02,3.85031
-2.036e+02,3.84906
-2.034e+02,3.84938
-2.032e+02,3.84938
-2.030e+02,3.84844
-2.028e+02,3.84938
-2.026e+02,3.85
-2.024e+02,3.85062
-2.022e+02,3.84969
-2.020e+02,3.85062
-2.018e+02,3.85062
-2.016e+02,3.85062
-2.014e+02,3.85031
-2.012e+02,3.84969
-2.010e+02,3.84813
-2.008e+02,3.84813
-2.006e+02,3.84844
-2.004e+02,3.84844
-2.002e+02,3.84844
-2.000e+02,3.84844
-1.998e+02,3.84813
-1.996e+02,3.84844
-1.994e+02,3.84844
-1.992e+02,3.84844
-1.990e+02,3.84813
-1.988e+02,3.84813
-1.986e+02,3.84969
-1.984e+02,3.84938
-1.982e+02,3.84938
-1.980e+02,3.84906
-1.978e+02,3.84906
-1.976e+02,3.84906
-1.974e+02,3.85813
-1.972e+02,3.91875
-1.970e+02,3.92
-1.968e+02,3.92094
-1.966e+02,3.92094
-1.964e+02,3.9225
-1.962e+02,3.92344
-1.960e+02,3.92437
-1.958e+02,3.92406
-1.956e+02,3.92531
-1.954e+02,3.92687
-1.952e+02,3.92781
-1.950e+02,3.92906
-1.948e+02,3.92969
-1.946e+02,3.93063
-1.944e+02,3.93063
-1.942e+02,3.93219
-1.940e+02,3.9325
-1.938e+02,3.93312
-1.936e+02,3.9325
-1.934e+02,3.93281
-1.932e+02,3.93406
-1.930e+02,3.935
-1.928e+02,3.93531
-1.926e+02,3.93625
-1.924e+02,3.93656
-1.922e+02,3.93562
-1.920e+02,3.93594
-1.918e+02,3.93781
-1.916e+02,3.93844
-1.914e+02,3.93812
-1.912e+02,3.93938
-1.910e+02,3.94031
-1.908e+02,3.94156
-1.906e+02,3.94094
-1.904e+02,3.94063
-1.902e+02,3.94063
-1.900e+02,3.94063
-1.898e+02,3.94125
-1.896e+02,3.94156
-1.894e+02,3.94188
-1.892e+02,3.94219
-1.890e+02,3.94219
-1.888e+02,3.94281
-1.886e+02,3.94313
-1.884e+02,3.94406
-1.882e+02,3.945
-1.880e+02,3.945
-1.878e+02,3.94687
-1.876e+02,3.94719
-1.874e+02,3.9475
-1.872e+02,3.94719
-1.870e+02,3.94781
-1.868e+02,3.94781
-1.866e+02,3.94781
-1.864e+02,3.94813
-1.862e+02,3.94875
-1.860e+02,3.94906
-1.858e+02,3.94844
-1.856e+02,3.95
-1.854e+02,3.95063
-1.852e+02,3.95125
-1.850e+02,3.95063
-1.848e+02,3.95
-1.846e+02,3.95031
-1.844e+02,3.95
-1.842e+02,3.95125
-1.840e+02,3.95156
-1.838e+02,3.95188
-1.836e+02,3.95281
-1.834e+02,3.95312
-1.832e+02,3.9525
-1.830e+02,3.95344
-1.828e+02,3.95406
-1.826e+02,3.95469
-1.824e+02,3.95406
-1.822e+02,3.95562
-1.820e+02,3.95594
-1.818e+02,3.95594
-1.816e+02,3.95531
-1.814e+02,3.95594
-1.812e+02,3.95688
-1.810e+02,3.95656
-1.808e+02,3.95688
-1.806e+02,3.95719
-1.804e+02,3.95719
-1.802e+02,3.95688
-1.800e+02,3.95688
-1.798e+02,3.95688
-1.796e+02,3.95781
-1.794e+02,3.9575
-1.792e+02,3.95875
-1.790e+02,3.95906
-1.788e+02,3.95969
-1.786e+02,3.96
-1.784e+02,3.95812
-1.782e+02,3.95875
-1.780e+02,3.95906
-1.778e+02,3.95938
-1.776e+02,3.95812
-1.774e+02,3.95781
-1.772e+02,3.95812
-1.770e+02,3.95969
-1.768e+02,3.95969
-1.766e+02,3.95969
-1.764e+02,3.95938
-1.762e+02,3.95906
-1.760e+02,3.96063
-1.758e+02,3.96094
-1.756e+02,3.96063
-1.754e+02,3.96063
-1.752e+02,3.96094
-1.750e+02,3.96156
-1.748e+02,3.9625
-1.746e+02,3.96281
-1.744e+02,3.96406
-1.742e+02,3.96344
-1.740e+02,3.96375
-1.738e+02,3.96313
-1.736e+02,3.9625
-1.734e+02,3.96375
-1.732e+02,3.96437
-1.730e+02,3.96469
-1.728e+02,3.96437
-1.726e+02,3.96469
-1.724e+02,3.96531
-1.722e+02,3.965
-1.720e+02,3.96594
-1.718e+02,3.96531
-1.716e+02,3.96594
-1.714e+02,3.96625
-1.712e+02,3.96687
-1.710e+02,3.96625
-1.708e+02,3.96625
-1.706e+02,3.96687
-1.704e+02,3.96656
-1.702e+02,3.96656
-1.700e+02,3.96687
-1.698e+02,3.96656
-1.696e+02,3.96719
-1.694e+02,3.96656
-1.692e+02,3.96719
-1.690e+02,3.96719
-1.688e+02,3.96687
-1.686e+02,3.96656
-1.684e+02,3.96687
-1.682e+02,3.96625
-1.680e+02,3.96625
-1.678e+02,3.96594
-1.676e+02,3.96687
-1.674e+02,3.96719
-1.672e+02,3.96719
-1.670e+02,3.96687
-1.668e+02,3.96656
-1.666e+02,3.96687
-1.664e+02,3.96781
-1.662e+02,3.96781
-1.660e+02,3.9675
-1.658e+02,3.96875
-1.656e+02,3.96906
-1.654e+02,3.96937
-1.652e+02,3.96969
-1.650e+02,3.96937
-1.648e+02,3.96969
-1.646e+02,3.96906
-1.644e+02,3.96937
-1.642e+02,3.97
-1.640e+02,3.97031
-1.638e+02,3.96937
-1.636e+02,3.97
-1.634e+02,3.97031
-1.632e+02,3.97
-1.630e+02,3.97156
-1.628e+02,3.97281
-1.626e+02,3.97156
-1.624e+02,3.9725
-1.622e+02,3.9725
-1.620e+02,3.9725
-1.618e+02,3.97219
-1.616e+02,3.97188
-1.614e+02,3.97281
-1.612e+02,3.97344
-1.610e+02,3.97344
-1.608e+02,3.97375
-1.606e+02,3.97313
-1.604e+02,3.97281
-1.602e+02,3.9725
-1.600e+02,3.97281
-1.598e+02,3.97219
-1.596e+02,3.97156
-1.594e+02,3.9725
-1.592e+02,3.97281
-1.590e+02,3.97375
-1.588e+02,3.97344
-1.586e+02,3.97375
-1.584e+02,3.97344
-1.582e+02,3.97406
-1.580e+02,3.97438
-1.578e+02,3.97469
-1.576e+02,3.975
-1.574e+02,3.97469
-1.572e+02,3.97438
-1.570e+02,3.97531
-1.568e+02,3.97562
-1.566e+02,3.97719
-1.564e+02,3.97656
-1.562e+02,3.97688
-1.560e+02,3.97594
-1.558e+02,3.975
-1.556e+02,3.97531
-1.554e+02,3.97656
-1.552e+02,3.97594
-1.550e+02,3.97594
-1.548e+02,3.97594
-1.546e+02,3.97594
-1.544e+02,3.97688
-1.542e+02,3.97656
-1.540e+02,3.97719
-1.538e+02,3.97656
-1.536e+02,3.97656
-1.534e+02,3.9775
-1.532e+02,3.97844
-1.530e+02,3.97844
-1.528e+02,3.97781
-1.526e+02,3.97906
-1.524e+02,3.97812
-1.522e+02,3.97875
-1.520e+02,3.97875
-1.518e+02,3.97781
-1.516e+02,3.97812
-1.514e+02,3.97781
-1.512e+02,3.9775
-1.510e+02,3.97781
-1.508e+02,3.9775
-1.506e+02,3.9775
-1.504e+02,3.9775
-1.502e+02,3.97844
-1.500e+02,3.97969
-1.498e+02,3.98031
-1.496e+02,3.98
-1.494e+02,3.97938
-1.492e+02,3.97938
-1.490e+02,3.97938
-1.488e+02,3.97938
-1.486e+02,3.97969
-1.484e+02,3.98031
-1.482e+02,3.97969
-1.480e+02,3.98094
-1.478e+02,3.98031
-1.476e+02,3.97938
-1.474e+02,3.97906
-1.472e+02,3.97906
-1.470e+02,3.97906
-1.468e+02,3.97938
-1.466e+02,3.97906
-1.464e+02,3.97906
-1.462e+02,3.97906
-1.460e+02,3.98
-1.458e+02,3.98063
-1.456e+02,3.98031
-1.454e+02,3.98094
-1.452e+02,3.97969
-1.450e+02,3.97875
-1.448e+02,3.97969
-1.446e+02,3.98063
-1.444e+02,3.98
-1.442e+02,3.98
-1.440e+02,3.98031
-1.438e+02,3.98125
-1.436e+02,3.98063
-1.434e+02,3.98063
-1.432e+02,3.98031
-1.430e+02,3.98094
-1.428e+02,3.98188
-1.426e+02,3.98094
-1.424e+02,3.98063
-1.422e+02,3.98094
-1.420e+02,3.98125
-1.418e+02,3.98063
-1.416e+02,3.98
-1.414e+02,3.98
-1.412e+02,3.98094
-1.410e+02,3.98031
-1.408e+02,3.98031
-1.406e+02,3.97969
-1.404e+02,3.97969
-1.402e+02,3.98031
-1.400e+02,3.98031
-1.398e+02,3.98094
-1.396e+02,3.98
-1.394e+02,3.98125
-1.392e+02,3.98031
-1.390e+02,3.98031
-1.388e+02,3.98
-1.386e+02,3.98063
-1.384e+02,3.98063
-1.382e+02,3.98063
-1.380e+02,3.98125
-1.378e+02,3.98188
-1.376e+02,3.9825
-1.374e+02,3.98125
-1.372e+02,3.98188
-1.370e+02,3.98219
-1.368e+02,3.98375
-1.366e+02,3.98281
-1.364e+02,3.98281
-1.362e+02,3.98281
-1.360e+02,3.9825
-1.358e+02,3.98188
-1.356e+02,3.98188
-1.354e+02,3.98125
-1.352e+02,3.9825
-1.350e+02,3.9825
-1.348e+02,3.98313
-1.346e+02,3.98375
-1.344e+02,3.98313
-1.342e+02,3.98313
-1.340e+02,3.98375
-1.338e+02,3.98344
-1.336e+02,3.98281
-1.334e+02,3.98281
-1.332e+02,3.98344
-1.330e+02,3.98375
-1.328e+02,3.98313
-1.326e+02,3.98281
-1.324e+02,3.98219
-1.322e+02,3.98375
-1.320e+02,3.98313
-1.318e+02,3.98281
-1.316e+02,3.98469
-1.314e+02,3.985
-1.312e+02,3.98531
-1.310e+02,3.98438
-1.308e+02,3.98531
-1.306e+02,3.98594
-1.304e+02,3.985
-1.302e+02,3.98406
-1.300e+02,3.98375
-1.298e+02,3.98406
-1.296e+02,3.98344
-1.294e+02,3.98281
-1.292e+02,3.98406
-1.290e+02,3.98406
-1.288e+02,3.98313
-1.286e+02,3.98344
-1.284e+02,3.98375
-1.282e+02,3.98438
-1.280e+02,3.98438
-1.278e+02,3.98406
-1.276e+02,3.98406
-1.274e+02,3.98656
-1.272e+02,3.98625
-1.270e+02,3.98563
-1.268e+02,3.98438
-1.266e+02,3.98406
-1.264e+02,3.98563
-1.262e+02,3.985
-1.260e+02,3.98438
-1.258e+02,3.98406
-1.256e+02,3.98531
-1.254e+02,3.985
-1.252e+02,3.98531
-1.250e+02,3.98563
-1.248e+02,3.98469
-1.246e+02,3.98531
-1.244e+02,3.98531
-1.242e+02,3.98469
-1.240e+02,3.985
-1.238e+02,3.98469
-1.236e+02,3.98594
-1.234e+02,3.98594
-1.232e+02,3.985
-1.230e+02,3.98406
-1.228e+02,3.985
-1.226e+02,3.98531
-1.224e+02,3.985
-1.222e+02,3.98406
-1.220e+02,3.98438
-1.218e+02,3.98531
-1.216e+02,3.98531
-1.214e+02,3.98563
-1.212e+02,3.98625
-1.210e+02,3.98531
-1.208e+02,3.98438
-1.206e+02,3.98438
-1.204e+02,3.98469
-1.202e+02,3.98438
-1.200e+02,3.98563
-1.198e+02,3.985
-1.196e+02,3.98594
-1.194e+02,3.98563
-1.192e+02,3.98531
-1.190e+02,3.98531
-1.188e+02,3.98594
-1.186e+02,3.98594
-1.184e+02,3.98531
-1.182e+02,3.985
-1.180e+02,3.98531
-1.178e+02,3.98469
-1.176e+02,3.98469
-1.174e+02,3.985
-1.172e+02,3.98531
-1.170e+02,3.98625
-1.168e+02,3.98531
-1.166e+02,3.98594
-1.164e+02,3.98656
-1.162e+02,3.98625
-1.160e+02,3.985
-1.158e+02,3.98563
-1.156e+02,3.98625
-1.154e+02,3.98625
-1.152e+02,3.985
-1.150e+02,3.98469
-1.148e+02,3.98531
-1.146e+02,3.98531
-1.144e+02,3.98469
-1.142e+02,3.98531
-1.140e+02,3.985
-1.138e+02,3.985
-1.136e+02,3.985
-1.134e+02,3.985
-1.132e+02,3.98531
-1.130e+02,3.98438
-1.128e+02,3.98563
-1.126e+02,3.98531
-1.124e+02,3.98594
-1.122e+02,3.98656
-1.120e+02,3.98563
-1.118e+02,3.98563
-1.116e+02,3.98594
-1.114e+02,3.98594
-1.112e+02,3.98594
-1.110e+02,3.98625
-1.108e+02,3.98563
-1.106e+02,3.98625
-1.104e+02,3.98719
-1.102e+02,3.98781
-1.100e+02,3.98781
-1.098e+02,3.98813
-1.096e+02,3.98656
-1.094e+02,3.98563
-1.092e+02,3.98594
-1.090e+02,3.98625
-1.088e+02,3.98625
-1.086e+02,3.98719
-1.084e+02,3.98719
-1.082e+02,3.98625
-1.080e+02,3.98594
-1.078e+02,3.98594
-1.076e+02,3.98563
-1.074e+02,3.98594
-1.072e+02,3.98656
-1.070e+02,3.98813
-1.068e+02,3.98875
-1.066e+02,3.98656
-1.064e+02,3.98781
-1.062e+02,3.98719
-1.060e+02,3.9875
-1.058e+02,3.9875
-1.056e+02,3.98719
-1.054e+02,3.98594
-1.052e+02,3.98656
-1.050e+02,3.9875
-1.048e+02,3.9875
-1.046e+02,3.98594
-1.044e+02,3.98781
-1.042e+02,3.98719
-1.040e+02,3.98719
-1.038e+02,3.98719
-1.036e+02,3.98625
-1.034e+02,3.98656
-1.032e+02,3.98813
-1.030e+02,3.98875
-1.028e+02,3.98937
-1.026e+02,3.99031
-1.024e+02,3.98906
-1.022e+02,3.98937
-1.020e+02,3.98875
-1.018e+02,3.98937
-1.016e+02,3.98875
-1.014e+02,3.98937
-1.012e+02,3.98937
-1.010e+02,3.98906
-1.008e+02,3.98906
-1.006e+02,3.98844
-1.004e+02,3.98813
-1.002e+02,3.98844
-1.000e+02,3.98844
-9.980e+01,3.98875
-9.960e+01,3.98844
-9.940e+01,3.98844
-9.920e+01,3.99
-9.900e+01,3.98875
-9.880e+01,3.98875
-9.860e+01,3.9875
-9.840e+01,3.98813
-9.820e+01,3.98813
-9.800e+01,3.98844
-9.780e+01,3.98906
-9.760e+01,3.98906
-9.740e+01,3.98844
-9.720e+01,3.98844
-9.700e+01,3.98875
-9.680e+01,3.98844
-9.660e+01,3.98844
-9.640e+01,3.98844
-9.620e+01,3.98937
-9.600e+01,3.98969
-9.580e+01,3.98781
-9.560e+01,3.98937
-9.540e+01,3.98937
-9.520e+01,3.98906
-9.500e+01,3.99031
-9.480e+01,3.99
-9.460e+01,3.98937
-9.440e+01,3.98875
-9.420e+01,3.98875
-9.400e+01,3.98844
-9.380e+01,3.98969
-9.360e+01,3.98937
-9.340e+01,3.98906
-9.320e+01,3.98969
-9.300e+01,3.98969
-9.280e+01,3.99063
-9.260e+01,3.99
-9.240e+01,3.99031
-9.220e+01,3.98969
-9.200e+01,3.99
-9.180e+01,3.99
-9.160e+01,3.99031
-9.140e+01,3.99094
-9.120e+01,3.99031
-9.100e+01,3.99031
-9.080e+01,3.98969
-9.060e+01,3.98937
-9.040e+01,3.98969
-9.020e+01,3.98937
-9.000e+01,3.99031
-8.980e+01,3.98969
-8.960e+01,3.99
-8.940e+01,3.98969
-8.920e+01,3.99063
-8.900e+01,3.98969
-8.880e+01,3.99031
-8.860e+01,3.99063
-8.840e+01,3.99063
-8.820e+01,3.99063
-8.800e+01,3.99031
-8.780e+01,3.98969
-8.760e+01,3.98969
-8.740e+01,3.99063
-8.720e+01,3.99031
-8.700e+01,3.99031
-8.680e+01,3.99031
-8.660e+01,3.98875
-8.640e+01,3.98969
-8.620e+01,3.99031
-8.600e+01,3.98969
-8.580e+01,3.99
-8.560e+01,3.98969
-8.540e+01,3.98906
-8.520e+01,3.99
-8.500e+01,3.98937
-8.480e+01,3.98969
-8.460e+01,3.98844
-8.440e+01,3.98813
-8.420e+01,3.98844
-8.400e+01,3.98844
-8.380e+01,3.98906
-8.360e+01,3.98906
-8.340e+01,3.98875
-8.320e+01,3.98969
-8.300e+01,3.99
-8.280e+01,3.98969
-8.260e+01,3.98937
-8.240e+01,3.98906
-8.220e+01,3.99
-8.200e+01,3.99
-8.180e+01,3.98906
-8.160e+01,3.99
-8.140e+01,3.98969
-8.120e+01,3.98937
-8.100e+01,3.99031
-8.080e+01,3.99063
-8.060e+01,3.99156
-8.040e+01,3.99125
-8.020e+01,3.99156
-8.000e+01,3.99125
-7.980e+01,3.99094
-7.960e+01,3.99125
-7.940e+01,3.99125
-7.920e+01,3.99125
-7.900e+01,3.99156
-7.880e+01,3.99063
-7.860e+01,3.99031
-7.840e+01,3.99031
-7.820e+01,3.99
-7.800e+01,3.98937
-7.780e+01,3.99031
-7.760e+01,3.99094
-7.740e+01,3.99063
-7.720e+01,3.98969
-7.700e+01,3.98844
-7.680e+01,3.98937
-7.660e+01,3.98937
-7.640e+01,3.98906
-7.620e+01,3.98969
-7.600e+01,3.98937
-7.580e+01,3.98875
-7.560e+01,3.98875
-7.540e+01,3.98969
-7.520e+01,3.99031
-7.500e+01,3.99063
-7.480e+01,3.99063
-7.460e+01,3.99094
-7.440e+01,3.98937
-7.420e+01,3.98937
-7.400e+01,3.99
-7.380e+01,3.99031
-7.360e+01,3.99063
-7.340e+01,3.99063
-7.320e+01,3.99
-7.300e+01,3.99
-7.280e+01,3.99031
-7.260e+01,3.99125
-7.240e+01,3.99
-7.220e+01,3.99031
-7.200e+01,3.99063
-7.180e+01,3.98969
-7.160e+01,3.99063
-7.140e+01,3.98937
-7.120e+01,3.99094
-7.100e+01,3.99125
-7.080e+01,3.99094
-7.060e+01,3.99188
-7.040e+01,3.99094
-7.020e+01,3.99125
-7.000e+01,3.99063
-6.980e+01,3.99094
-6.960e+01,3.99063
-6.940e+01,3.99188
-6.920e+01,3.99188
-6.900e+01,3.99156
-6.880e+01,3.99188
-6.860e+01,3.9925
-6.840e+01,3.9925
-6.820e+01,3.99063
-6.800e+01,3.99125
-6.780e+01,3.99188
-6.760e+01,3.99188
-6.740e+01,3.99156
-6.720e+01,3.99031
-6.700e+01,3.99156
-6.680e+01,3.99094
-6.660e+01,3.9925
-6.640e+01,3.99188
-6.620e+01,3.99156
-6.600e+01,3.99313
-6.580e+01,3.99188
-6.560e+01,3.99188
-6.540e+01,3.99156
-6.520e+01,3.99125
-6.500e+01,3.99094
-6.480e+01,3.99094
-6.460e+01,3.99094
-6.440e+01,3.99156
-6.420e+01,3.99188
-6.400e+01,3.99
-6.380e+01,3.99031
-6.360e+01,3.99063
-6.340e+01,3.98906
-6.320e+01,3.99031
-6.300e+01,3.99
-6.280e+01,3.98906
-6.260e+01,3.99031
-6.240e+01,3.99156
-6.220e+01,3.99063
-6.200e+01,3.99
-6.180e+01,3.99031
-6.160e+01,3.99
-6.140e+01,3.99094
-6.120e+01,3.99125
-6.100e+01,3.9925
-6.080e+01,3.99188
-6.060e+01,3.99031
-6.040e+01,3.98969
-6.020e+01,3.98969
-6.000e+01,3.99031
-5.980e+01,3.99031
-5.960e+01,3.99031
-5.940e+01,3.99
-5.920e+01,3.98906
-5.900e+01,3.98937
-5.880e+01,3.99031
-5.860e+01,3.99031
-5.840e+01,3.99031
-5.820e+01,3.98937
-5.800e+01,3.99031
-5.780e+01,3.99
-5.760e+01,3.99094
-5.740e+01,3.99125
-5.720e+01,3.99156
-5.700e+01,3.99156
-5.680e+01,3.99063
-5.660e+01,3.99125
-5.640e+01,3.99188
-5.620e+01,3.99344
-5.600e+01,3.99313
-5.580e+01,3.99313
-5.560e+01,3.99375
-5.540e+01,3.99406
-5.520e+01,3.99344
-5.500e+01,3.99188
-5.480e+01,3.99188
-5.460e+01,3.99094
-5.440e+01,3.99156
-5.420e+01,3.99344
-5.400e+01,3.99156
-5.380e+01,3.9925
-5.360e+01,3.9925
-5.340e+01,3.99281
-5.320e+01,3.9925
-5.300e+01,3.99156
-5.280e+01,3.9925
-5.260e+01,3.99281
-5.240e+01,3.99281
-5.220e+01,3.99125
-5.200e+01,3.99188
-5.180e+01,3.9925
-5.160e+01,3.99188
-5.140e+01,3.99125
-5.120e+01,3.99156
-5.100e+01,3.99156
-5.080e+01,3.99188
-5.060e+01,3.99156
-5.040e+01,3.99188
-5.020e+01,3.99281
-5.000e+01,3.9925
-4.980e+01,3.99125
-4.960e+01,3.99281
-4.940e+01,3.99281
-4.920e+01,3.9925
-4.900e+01,3.9925
-4.880e+01,3.99313
-4.860e+01,3.99281
-4.840e+01,3.99406
-4.820e+01,3.99438
-4.800e+01,3.99375
-4.780e+01,3.9925
-4.760e+01,3.99125
-4.740e+01,3.99125
-4.720e+01,3.99188
-4.700e+01,3.99156
-4.680e+01,3.99188
-4.660e+01,3.99188
-4.640e+01,3.9925
-4.620e+01,3.9925
-4.600e+01,3.99281
-4.580e+01,3.99188
-4.560e+01,3.99313
-4.540e+01,3.99188
-4.520e+01,3.99281
-4.500e+01,3.9925
-4.480e+01,3.99156
-4.460e+01,3.99156
-4.440e+01,3.99188
-4.420e+01,3.99406
-4.400e+01,3.99281
-4.380e+01,3.99188
-4.360e+01,3.99344
-4.340e+01,3.99344
-4.320e+01,3.99313
-4.300e+01,3.99188
-4.280e+01,3.99156
-4.260e+01,3.99313
-4.240e+01,3.99313
-4.220e+01,3.99281
-4.200e+01,3.9925
-4.180e+01,3.99281
-4.160e+01,3.99281
-4.140e+01,3.9925
-4.120e+01,3.9925
-4.100e+01,3.99188
-4.080e+01,3.9925
-4.060e+01,3.99313
-4.040e+01,3.99375
-4.020e+01,3.99344
-4.000e+01,3.99313
-3.980e+01,3.99344
-3.960e+01,3.99406
-3.940e+01,3.99375
-3.920e+01,3.99281
-3.900e+01,3.9925
-3.880e+01,3.99313
-3.860e+01,3.9925
-3.840e+01,3.99156
-3.820e+01,3.99156
-3.800e+01,3.99406
-3.780e+01,3.99344
-3.760e+01,3.99281
-3.740e+01,3.99313
-3.720e+01,3.99344
-3.700e+01,3.99469
-3.680e+01,3.99406
-3.660e+01,3.99406
-3.640e+01,3.99375
-3.620e+01,3.9925
-3.600e+01,3.9925
-3.580e+01,3.9925
-3.560e+01,3.99375
-3.540e+01,3.99344
-3.520e+01,3.99406
-3.500e+01,3.99344
-3.480e+01,3.99344
-3.460e+01,3.99344
-3.440e+01,3.99344
-3.420e+01,3.99313
-3.400e+01,3.99313
-3.380e+01,3.99313
-3.360e+01,3.99344
-3.340e+01,3.99281
-3.320e+01,3.99406
-3.300e+01,3.99375
-3.280e+01,3.99313
-3.260e+01,3.99281
-3.240e+01,3.99156
-3.220e+01,3.99344
-3.200e+01,3.99406
-3.180e+01,3.99281
-3.160e+01,3.99281
-3.140e+01,3.9925
-3.120e+01,3.99344
-3.100e+01,3.99375
-3.080e+01,3.99375
-3.060e+01,3.99406
-3.040e+01,3.99313
-3.020e+01,3.99281
-3.000e+01,3.99281
-2.980e+01,3.99344
-2.960e+01,3.99344
-2.940e+01,3.99406
-2.920e+01,3.99438
-2.900e+01,3.99313
-2.880e+01,3.99375
-2.860e+01,3.99344
-2.840e+01,3.99344
-2.820e+01,3.9925
-2.800e+01,3.99188
-2.780e+01,3.99156
-2.760e+01,3.9925
-2.740e+01,3.99125
-2.720e+01,3.99125
-2.700e+01,3.99188
-2.680e+01,3.9925
-2.660e+01,3.99156
-2.640e+01,3.99156
-2.620e+01,3.99063
-2.600e+01,3.99156
-2.580e+01,3.99188
-2.560e+01,3.99094
-2.540e+01,3.99156
-2.520e+01,3.99188
-2.500e+01,3.99156
-2.480e+01,3.99156
-2.460e+01,3.99156
-2.440e+01,3.9925
-2.420e+01,3.99125
-2.400e+01,3.99188
-2.380e+01,3.99188
-2.360e+01,3.99281
-2.340e+01,3.99344
-2.320e+01,3.99281
-2.300e+01,3.99281
-2.280e+01,3.99281
-2.260e+01,3.99156
-2.240e+01,3.99188
-2.220e+01,3.99156
-2.200e+01,3.99125
-2.180e+01,3.99125
-2.160e+01,3.99094
-2.140e+01,3.99094
-2.120e+01,3.99031
-2.100e+01,3.99156
-2.080e+01,3.99125
-2.060e+01,3.99063
-2.040e+01,3.9925
-2.020e+01,3.99156
-2.000e+01,3.99281
-1.980e+01,3.9925
-1.960e+01,3.99313
-1.940e+01,3.99438
-1.920e+01,3.99375
-1.900e+01,3.99375
-1.880e+01,3.99313
-1.860e+01,3.99344
-1.840e+01,3.99375
-1.820e+01,3.99281
-1.800e+01,3.99344
-1.780e+01,3.99344
-1.760e+01,3.99375
-1.740e+01,3.99406
-1.720e+01,3.99375
-1.700e+01,3.99344
-1.680e+01,3.99281
-1.660e+01,3.97125
-1.640e+01,3.91844
-1.620e+01,3.90063
-1.600e+01,3.9
-1.580e+01,3.89906
-1.560e+01,3.89875
-1.540e+01,3.89813
-1.520e+01,3.8975
-1.500e+01,3.8975
-1.480e+01,3.89625
-1.460e+01,3.89625
-1.440e+01,3.89469
-1.420e+01,3.89531
-1.400e+01,3.89438
-1.380e+01,3.89375
-1.360e+01,3.89469
-1.340e+01,3.89344
-1.320e+01,3.89344
-1.300e+01,3.89344
-1.280e+01,3.89156
-1.260e+01,3.89094
-1.240e+01,3.89
-1.220e+01,3.88875
-1.200e+01,3.88906
-1.180e+01,3.88938
-1.160e+01,3.88875
-1.140e+01,3.88813
-1.120e+01,3.88719
-1.100e+01,3.88719
-1.080e+01,3.88688
-1.060e+01,3.88469
-1.040e+01,3.88406
-1.020e+01,3.88406
-1.000e+01,3.88437
-9.800e+00,3.88406
-9.600e+00,3.88344
-9.400e+00,3.88281
-9.200e+00,3.8825
-9.000e+00,3.8825
-8.800e+00,3.88156
-8.600e+00,3.88094
-8.400e+00,3.87969
-8.200e+00,3.87875
-8.000e+00,3.87906
-7.800e+00,3.87906
-7.600e+00,3.87906
-7.400e+00,3.87906
-7.200e+00,3.87938
-7.000e+00,3.87938
-6.800e+00,3.87969
-6.600e+00,3.87938
-6.400e+00,3.87781
-6.200e+00,3.87844
-6.000e+00,3.87844
-5.800e+00,3.8775
-5.600e+00,3.87781
-5.400e+00,3.87875
-5.200e+00,3.87781
-5.000e+00,3.87594
-4.800e+00,3.87625
-4.600e+00,3.87625
-4.400e+00,3.87594
-4.200e+00,3.87625
-4.000e+00,3.87625
-3.800e+00,3.875
-3.600e+00,3.87594
-3.400e+00,3.875
-3.200e+00,3.87375
-3.000e+00,3.87344
-2.800e+00,3.87312
-2.600e+00,3.87312
-2.400e+00,3.8725
-2.200e+00,3.8725
-2.000e+00,3.87281
-1.800e+00,3.87062
-1.600e+00,3.87031
-1.400e+00,3.87094
-1.200e+00,3.87156
-1.000e-00,3.87156
-8.000e-01,3.87062
-6.000e-01,3.86969
-4.000e-01,3.86969
-2.000e-01,3.86906
9.037e-11,3.86938
2.000e-01,3.86906
4.000e-01,3.86906
6.000e-01,3.86844
8.000e-01,3.8675
1.000e+00,3.86656
1.200e+00,3.86625
1.400e+00,3.86719
1.600e+00,3.86531
1.800e+00,3.86563
2.000e+00,3.86531
2.200e+00,3.86625
2.400e+00,3.86625
2.600e+00,3.86594
2.800e+00,3.86594
3.000e+00,3.86563
3.200e+00,3.86437
3.400e+00,3.86344
3.600e+00,3.865
3.800e+00,3.86688
4.000e+00,3.86625
4.200e+00,3.86531
4.400e+00,3.865
4.600e+00,3.86437
4.800e+00,3.86531
5.000e+00,3.865
5.200e+00,3.86531
5.400e+00,3.86406
5.600e+00,3.86344
5.800e+00,3.86281
6.000e+00,3.86313
6.200e+00,3.8625
6.400e+00,3.8625
6.600e+00,3.8625
6.800e+00,3.86187
7.000e+00,3.86187
7.200e+00,3.86125
7.400e+00,3.86094
7.600e+00,3.86125
7.800e+00,3.86063
8.000e+00,3.86
8.200e+00,3.85969
8.400e+00,3.85969
8.600e+00,3.85813
8.800e+00,3.85844
9.000e+00,3.85844
9.200e+00,3.85875
9.400e+00,3.85906
9.600e+00,3.85969
9.800e+00,3.85844
1.000e+01,3.85875
1.020e+01,3.85875
1.040e+01,3.85906
1.060e+01,3.85844
1.080e+01,3.85906
1.100e+01,3.85906
1.120e+01,3.85813
1.140e+01,3.85781
1.160e+01,3.85813
1.180e+01,3.85813
1.200e+01,3.8575
1.220e+01,3.85813
1.240e+01,3.85844
1.260e+01,3.85906
1.280e+01,3.85813
1.300e+01,3.85719
1.320e+01,3.85875
1.340e+01,3.85875
1.360e+01,3.85719
1.380e+01,3.85719
1.400e+01,3.85688
1.420e+01,3.85656
1.440e+01,3.85594
1.460e+01,3.85531
1.480e+01,3.85531
1.500e+01,3.855
1.520e+01,3.85531
1.540e+01,3.85531
1.560e+01,3.85531
1.580e+01,3.85563
1.600e+01,3.85563
1.620e+01,3.85531
1.640e+01,3.85625
1.660e+01,3.85438
1.680e+01,3.85375
1.700e+01,3.85438
1.720e+01,3.85438
1.740e+01,3.85375
1.760e+01,3.85438
1.780e+01,3.85344
1.800e+01,3.8525
1.820e+01,3.85312
1.840e+01,3.85344
1.860e+01,3.85312
1.880e+01,3.85344
1.900e+01,3.85281
1.920e+01,3.85281
1.940e+01,3.85219
1.960e+01,3.85188
1.980e+01,3.8525
2.000e+01,3.8525
2.020e+01,3.85219
2.040e+01,3.85
2.060e+01,3.85094
2.080e+01,3.85031
2.100e+01,3.85094
2.120e+01,3.85031
2.140e+01,3.85062
2.160e+01,3.85062
2.180e+01,3.85062
2.200e+01,3.84969
2.220e+01,3.84969
2.240e+01,3.84969
2.260e+01,3.84906
2.280e+01,3.84906
2.300e+01,3.85031
2.320e+01,3.85031
2.340e+01,3.85094
2.360e+01,3.85156
2.380e+01,3.85031
2.400e+01,3.84969
2.420e+01,3.84938
2.440e+01,3.84906
2.460e+01,3.84906
2.480e+01,3.84781
2.500e+01,3.84813
2.520e+01,3.84938
2.540e+01,3.84938
2.560e+01,3.84813
2.580e+01,3.84813
2.600e+01,3.84719
2.620e+01,3.84844
2.640e+01,3.84844
2.660e+01,3.84781
2.680e+01,3.84719
2.700e+01,3.84781
2.720e+01,3.8475
2.740e+01,3.84719
2.760e+01,3.84719
2.780e+01,3.84813
2.800e+01,3.84938
2.820e+01,3.84938
2.840e+01,3.84813
2.860e+01,3.8475
2.880e+01,3.84625
2.900e+01,3.84594
2.920e+01,3.84656
2.940e+01,3.84594
2.960e+01,3.84625
2.980e+01,3.84594
3.000e+01,3.84594
3.020e+01,3.84563
3.040e+01,3.84656
3.060e+01,3.84531
3.080e+01,3.84406
3.100e+01,3.84375
3.120e+01,3.84469
3.140e+01,3.845
3.160e+01,3.845
3.180e+01,3.84437
3.200e+01,3.84406
3.220e+01,3.84375
3.240e+01,3.84375
3.260e+01,3.84375
3.280e+01,3.84437
3.300e+01,3.84469
3.320e+01,3.84375
3.340e+01,3.8425
3.360e+01,3.84313
3.380e+01,3.84313
3.400e+01,3.8425
3.420e+01,3.84281
3.440e+01,3.84313
3.460e+01,3.84375
3.480e+01,3.84375
3.500e+01,3.84313
3.520e+01,3.8425
3.540e+01,3.84313
3.560e+01,3.84406
3.580e+01,3.84375
3.600e+01,3.84313
3.620e+01,3.84219
3.640e+01,3.8425
3.660e+01,3.84219
3.680e+01,3.84156
3.700e+01,3.84156
3.720e+01,3.84094
3.740e+01,3.84063
3.760e+01,3.84031
3.780e+01,3.84031
3.800e+01,3.84063
3.820e+01,3.84
3.840e+01,3.84031
3.860e+01,3.84094
3.880e+01,3.84031
3.900e+01,3.83969
3.920e+01,3.84
3.940e+01,3.83969
3.960e+01,3.84
3.980e+01,3.83969
4.000e+01,3.84094
4.020e+01,3.84094
4.040e+01,3.84
4.060e+01,3.83937
4.080e+01,3.84
4.100e+01,3.83781
4.120e+01,3.83625
4.140e+01,3.83781
4.160e+01,3.83719
4.180e+01,3.83719
4.200e+01,3.83719
4.220e+01,3.83781
4.240e+01,3.83875
4.260e+01,3.83875
4.280e+01,3.83906
4.300e+01,3.83844
4.320e+01,3.83781
4.340e+01,3.83906
4.360e+01,3.83781
4.380e+01,3.83688
4.400e+01,3.8375
4.420e+01,3.83781
4.440e+01,3.8375
4.460e+01,3.83719
4.480e+01,3.8375
4.500e+01,3.8375
4.520e+01,3.83688
4.540e+01,3.83688
4.560e+01,3.83656
4.580e+01,3.8375
4.600e+01,3.83781
4.620e+01,3.83625
4.640e+01,3.83625
4.660e+01,3.83563
4.680e+01,3.83563
4.700e+01,3.83625
4.720e+01,3.83656
4.740e+01,3.83781
4.760e+01,3.83719
4.780e+01,3.8375
4.800e+01,3.83781
4.820e+01,3.83688
4.840e+01,3.83688
4.860e+01,3.83656
4.880e+01,3.83688
4.900e+01,3.83688
4.920e+01,3.83594
4.940e+01,3.83563
4.960e+01,3.83625
4.980e+01,3.83594
5.000e+01,3.83625
5.020e+01,3.83688
5.040e+01,3.83563
5.060e+01,3.83563
5.080e+01,3.83531
5.100e+01,3.83438
5.120e+01,3.83438
5.140e+01,3.83438
5.160e+01,3.83469
5.180e+01,3.83469
5.200e+01,3.83375
5.220e+01,3.83438
5.240e+01,3.83375
5.260e+01,3.83438
5.280e+01,3.83469
5.300e+01,3.83375
5.320e+01,3.83406
5.340e+01,3.83312
5.360e+01,3.8325
5.380e+01,3.8325
5.400e+01,3.83344
5.420e+01,3.83375
5.440e+01,3.83344
5.460e+01,3.83344
5.480e+01,3.83375
5.500e+01,3.83438
5.520e+01,3.83406
5.540e+01,3.83406
5.560e+01,3.83312
5.580e+01,3.83312
5.600e+01,3.83219
5.620e+01,3.83312
5.640e+01,3.8325
5.660e+01,3.83312
5.680e+01,3.83406
5.700e+01,3.83344
5.720e+01,3.83344
5.740e+01,3.83344
5.760e+01,3.83312
5.780e+01,3.83156
5.800e+01,3.83156
5.820e+01,3.8325
5.840e+01,3.83312
5.860e+01,3.83406
5.880e+01,3.83406
5.900e+01,3.83375
5.920e+01,3.83375
5.940e+01,3.8325
5.960e+01,3.83188
5.980e+01,3.83219
6.000e+01,3.83156
6.020e+01,3.83125
6.040e+01,3.83156
6.060e+01,3.83219
6.080e+01,3.83312
6.100e+01,3.83344
6.120e+01,3.83438
6.140e+01,3.83375
6.160e+01,3.83406
6.180e+01,3.83375
6.200e+01,3.83375
6.220e+01,3.83312
6.240e+01,3.8325
6.260e+01,3.83344
6.280e+01,3.83219
6.300e+01,3.83156
6.320e+01,3.83188
6.340e+01,3.83125
6.360e+01,3.83
6.380e+01,3.83062
6.400e+01,3.83156
6.420e+01,3.83219
6.440e+01,3.83125
6.460e+01,3.83062
6.480e+01,3.83062
6.500e+01,3.83156
6.520e+01,3.83094
6.540e+01,3.83156
6.560e+01,3.83312
6.580e+01,3.83156
6.600e+01,3.83031
6.620e+01,3.83156
6.640e+01,3.83125
6.660e+01,3.82969
6.680e+01,3.83
6.700e+01,3.83031
6.720e+01,3.83094
6.740e+01,3.83219
6.760e+01,3.83219
6.780e+01,3.83156
6.800e+01,3.83156
6.820e+01,3.83156
6.840e+01,3.83156
6.860e+01,3.83219
6.880e+01,3.83188
6.900e+01,3.83062
6.920e+01,3.83094
6.940e+01,3.83156
6.960e+01,3.83125
6.980e+01,3.83094
7.000e+01,3.83031
7.020e+01,3.83094
7.040e+01,3.83125
7.060e+01,3.83125
7.080e+01,3.83188
7.100e+01,3.83125
7.120e+01,3.83094
7.140e+01,3.82938
7.160e+01,3.83
7.180e+01,3.82969
7.200e+01,3.82969
7.220e+01,3.82938
7.240e+01,3.82906
7.260e+01,3.82906
7.280e+01,3.82875
7.300e+01,3.82875
7.320e+01,3.82781
7.340e+01,3.82781
7.360e+01,3.82875
7.380e+01,3.82844
7.400e+01,3.82875
7.420e+01,3.83
7.440e+01,3.82844
7.460e+01,3.82875
7.480e+01,3.82781
7.500e+01,3.82781
7.520e+01,3.82844
7.540e+01,3.82844
7.560e+01,3.82781
7.580e+01,3.82781
7.600e+01,3.82688
7.620e+01,3.82781
7.640e+01,3.82719
7.660e+01,3.82781
7.680e+01,3.82719
7.700e+01,3.82812
7.720e+01,3.82688
7.740e+01,3.82625
7.760e+01,3.82688
7.780e+01,3.82656
7.800e+01,3.82625
7.820e+01,3.82594
7.840e+01,3.82531
7.860e+01,3.82563
7.880e+01,3.82656
7.900e+01,3.82656
7.920e+01,3.82656
7.940e+01,3.82563
7.960e+01,3.82563
7.980e+01,3.82656
8.000e+01,3.82594
8.020e+01,3.82594
8.040e+01,3.82563
8.060e+01,3.82531
8.080e+01,3.825
8.100e+01,3.82594
8.120e+01,3.82625
8.140e+01,3.82563
8.160e+01,3.82563
8.180e+01,3.82594
8.200e+01,3.82563
8.220e+01,3.82594
8.240e+01,3.82625
8.260e+01,3.82625
8.280e+01,3.82625
8.300e+01,3.82625
8.320e+01,3.82563
8.340e+01,3.82531
8.360e+01,3.82531
8.380e+01,3.82469
8.400e+01,3.82469
8.420e+01,3.82469
8.440e+01,3.82437
8.460e+01,3.82406
8.480e+01,3.82344
8.500e+01,3.82406
8.520e+01,3.82406
8.540e+01,3.82313
8.560e+01,3.82344
8.580e+01,3.82375
8.600e+01,3.82375
8.620e+01,3.82406
8.640e+01,3.82406
8.660e+01,3.82344
8.680e+01,3.82063
8.700e+01,3.82
8.720e+01,3.81969
8.740e+01,3.81969
8.760e+01,3.81906
8.780e+01,3.81844
8.800e+01,3.81813
8.820e+01,3.81906
8.840e+01,3.81844
8.860e+01,3.81813
8.880e+01,3.81875
8.900e+01,3.81969
8.920e+01,3.81937
8.940e+01,3.81937
8.960e+01,3.81937
8.980e+01,3.81937
9.000e+01,3.81937
9.020e+01,3.81906
9.040e+01,3.81844
9.060e+01,3.81937
9.080e+01,3.81937
9.100e+01,3.81969
9.120e+01,3.81875
9.140e+01,3.81969
9.160e+01,3.81969
9.180e+01,3.81969
9.200e+01,3.81875
9.220e+01,3.81844
9.240e+01,3.81937
9.260e+01,3.81813
9.280e+01,3.81844
9.300e+01,3.81844
9.320e+01,3.81844
9.340e+01,3.81875
9.360e+01,3.82031
9.380e+01,3.81937
9.400e+01,3.81906
9.420e+01,3.81875
9.440e+01,3.81844
9.460e+01,3.81781
9.480e+01,3.8175
9.500e+01,3.8175
9.520e+01,3.81781
9.540e+01,3.81813
9.560e+01,3.81813
9.580e+01,3.81875
9.600e+01,3.81875
9.620e+01,3.81875
9.640e+01,3.81813
9.660e+01,3.81719
9.680e+01,3.81625
9.700e+01,3.81656
9.720e+01,3.81625
9.740e+01,3.81656
9.760e+01,3.81594
9.780e+01,3.81656
9.800e+01,3.81594
9.820e+01,3.815
9.840e+01,3.81469
9.860e+01,3.81594
9.880e+01,3.8175
9.900e+01,3.81656
9.920e+01,3.81625
9.940e+01,3.81531
9.960e+01,3.81469
9.980e+01,3.81469
1.000e+02,3.81469
1.002e+02,3.81469
1.004e+02,3.81656
1.006e+02,3.81656
1.008e+02,3.81563
1.010e+02,3.81563
1.012e+02,3.8175
1.014e+02,3.81656
1.016e+02,3.81719
1.018e+02,3.81625
1.020e+02,3.81594
1.022e+02,3.81563
1.024e+02,3.81531
1.026e+02,3.81594
1.028e+02,3.81563
1.030e+02,3.81469
1.032e+02,3.815
1.034e+02,3.81531
1.036e+02,3.81563
1.038e+02,3.81531
1.040e+02,3.815
1.042e+02,3.815
1.044e+02,3.81438
1.046e+02,3.81406
1.048e+02,3.81406
1.050e+02,3.81281
1.052e+02,3.81344
1.054e+02,3.81375
1.056e+02,3.8125
1.058e+02,3.81312
1.060e+02,3.81406
1.062e+02,3.81438
1.064e+02,3.81375
1.066e+02,3.81312
1.068e+02,3.81188
1.070e+02,3.81312
1.072e+02,3.81281
1.074e+02,3.81094
1.076e+02,3.81188
1.078e+02,3.81281
1.080e+02,3.81281
1.082e+02,3.81125
1.084e+02,3.81125
1.086e+02,3.81281
1.088e+02,3.81281
1.090e+02,3.81281
1.092e+02,3.81219
1.094e+02,3.8125
1.096e+02,3.8125
1.098e+02,3.8125
1.100e+02,3.81031
1.102e+02,3.81094
1.104e+02,3.81188
1.106e+02,3.81188
1.108e+02,3.8125
1.110e+02,3.8125
1.112e+02,3.8125
1.114e+02,3.81219
1.116e+02,3.8125
1.118e+02,3.8125
1.120e+02,3.8125
1.122e+02,3.81094
1.124e+02,3.81094
1.126e+02,3.81219
1.128e+02,3.81219
1.130e+02,3.81344
1.132e+02,3.81344
1.134e+02,3.81312
1.136e+02,3.81375
1.138e+02,3.81406
1.140e+02,3.81312
1.142e+02,3.81281
1.144e+02,3.8125
1.146e+02,3.81312
1.148e+02,3.8125
1.150e+02,3.81344
1.152e+02,3.8125
1.154e+02,3.8125
1.156e+02,3.81188
1.158e+02,3.81188
1.160e+02,3.81188
1.162e+02,3.81281
1.164e+02,3.8125
1.166e+02,3.81219
1.168e+02,3.8125
1.170e+02,3.81219
1.172e+02,3.81125
1.174e+02,3.81125
1.176e+02,3.81094
1.178e+02,3.8125
1.180e+02,3.8125
1.182e+02,3.81094
1.184e+02,3.81062
1.186e+02,3.80969
1.188e+02,3.81094
1.190e+02,3.80969
1.192e+02,3.81031
1.194e+02,3.80938
1.196e+02,3.80938
1.198e+02,3.81062
1.200e+02,3.81
1.202e+02,3.81
1.204e+02,3.80875
1.206e+02,3.81031
1.208e+02,3.81062
1.210e+02,3.81062
1.212e+02,3.81
1.214e+02,3.81031
1.216e+02,3.81031
1.218e+02,3.80938
1.220e+02,3.80969
1.222e+02,3.80875
1.224e+02,3.80875
1.226e+02,3.80906
1.228e+02,3.81
1.230e+02,3.81031
1.232e+02,3.81094
1.234e+02,3.81094
1.236e+02,3.81094
1.238e+02,3.81031
1.240e+02,3.80906
1.242e+02,3.80844
1.244e+02,3.81
1.246e+02,3.81031
1.248e+02,3.80906
1.250e+02,3.80969
1.252e+02,3.80844
1.254e+02,3.80938
1.256e+02,3.81062
1.258e+02,3.81094
1.260e+02,3.80906
1.262e+02,3.80906
1.264e+02,3.80875
1.266e+02,3.80875
1.268e+02,3.80844
1.270e+02,3.80844
1.272e+02,3.80781
1.274e+02,3.80688
1.276e+02,3.80719
1.278e+02,3.80812
1.280e+02,3.80781
1.282e+02,3.80812
1.284e+02,3.80812
1.286e+02,3.80906
1.288e+02,3.80875
1.290e+02,3.80875
1.292e+02,3.80938
1.294e+02,3.80969
1.296e+02,3.80938
1.298e+02,3.80875
1.300e+02,3.80906
1.302e+02,3.80906
1.304e+02,3.80969
1.306e+02,3.80906
1.308e+02,3.80938
1.310e+02,3.80906
1.312e+02,3.80844
1.314e+02,3.80844
1.316e+02,3.80875
1.318e+02,3.80844
1.320e+02,3.80875
1.322e+02,3.80969
1.324e+02,3.80938
1.326e+02,3.80969
1.328e+02,3.81
1.330e+02,3.81
1.332e+02,3.80969
1.334e+02,3.80875
1.336e+02,3.80812
1.338e+02,3.80719
1.340e+02,3.8075
1.342e+02,3.80812
1.344e+02,3.80844
1.346e+02,3.80781
1.348e+02,3.80719
1.350e+02,3.80719
1.352e+02,3.80812
1.354e+02,3.8075
1.356e+02,3.80906
1.358e+02,3.80906
1.360e+02,3.80781
1.362e+02,3.80781
1.364e+02,3.80844
1.366e+02,3.80875
1.368e+02,3.80812
1.370e+02,3.80688
1.372e+02,3.8075
1.374e+02,3.80719
1.376e+02,3.80719
1.378e+02,3.8075
1.380e+02,3.80812
1.382e+02,3.80781
1.384e+02,3.80844
1.386e+02,3.80719
1.388e+02,3.80688
1.390e+02,3.80719
1.392e+02,3.80656
1.394e+02,3.80594
1.396e+02,3.80531
1.398e+02,3.80563
1.400e+02,3.805
1.402e+02,3.805
1.404e+02,3.80531
1.406e+02,3.80563
1.408e+02,3.80594
1.410e+02,3.80594
1.412e+02,3.80594
1.414e+02,3.80594
1.416e+02,3.80656
1.418e+02,3.80469
1.420e+02,3.80375
1.422e+02,3.80438
1.424e+02,3.805
1.426e+02,3.805
1.428e+02,3.80563
1.430e+02,3.80656
1.432e+02,3.80594
1.434e+02,3.80688
1.436e+02,3.80563
1.438e+02,3.805
1.440e+02,3.80594
1.442e+02,3.80656
1.444e+02,3.80563
1.446e+02,3.80469
1.448e+02,3.80469
1.450e+02,3.80563
1.452e+02,3.80656
1.454e+02,3.80656
1.456e+02,3.80469
1.458e+02,3.805
1.460e+02,3.80469
1.462e+02,3.80469
1.464e+02,3.80438
1.466e+02,3.80469
1.468e+02,3.80469
1.470e+02,3.805
1.472e+02,3.80469
1.474e+02,3.805
1.476e+02,3.80438
1.478e+02,3.80375
1.480e+02,3.80438
1.482e+02,3.80438
1.484e+02,3.80375
1.486e+02,3.80281
1.488e+02,3.80219
1.490e+02,3.8025
1.492e+02,3.80187
1.494e+02,3.80281
1.496e+02,3.80313
1.498e+02,3.8025
1.500e+02,3.80281
1.502e+02,3.80313
1.504e+02,3.80313
1.506e+02,3.8025
1.508e+02,3.80313
1.510e+02,3.80344
1.512e+02,3.80469
1.514e+02,3.80406
1.516e+02,3.80344
1.518e+02,3.80344
1.520e+02,3.80375
1.522e+02,3.80281
1.524e+02,3.80375
1.526e+02,3.80438
1.528e+02,3.80375
1.530e+02,3.80344
1.532e+02,3.80313
1.534e+02,3.80375
1.536e+02,3.80375
1.538e+02,3.80406
1.540e+02,3.80406
1.542e+02,3.80344
1.544e+02,3.80406
1.546e+02,3.80406
1.548e+02,3.80375
1.550e+02,3.80344
1.552e+02,3.8025
1.554e+02,3.80281
1.556e+02,3.8025
1.558e+02,3.80313
1.560e+02,3.80219
1.562e+02,3.80281
1.564e+02,3.80063
1.566e+02,3.80125
1.568e+02,3.80187
1.570e+02,3.80125
1.572e+02,3.80156
1.574e+02,3.80219
1.576e+02,3.80281
1.578e+02,3.80187
1.580e+02,3.80187
1.582e+02,3.80281
1.584e+02,3.80281
1.586e+02,3.80219
1.588e+02,3.8025
1.590e+02,3.80219
1.592e+02,3.8025
1.594e+02,3.80156
1.596e+02,3.8025
1.598e+02,3.8025
1.600e+02,3.8025
1.602e+02,3.80313
1.604e+02,3.8025
1.606e+02,3.80125
1.608e+02,3.80281
1.610e+02,3.80406
1.612e+02,3.80344
1.614e+02,3.80219
1.616e+02,3.80219
1.618e+02,3.80219
1.620e+02,3.80281
1.622e+02,3.80344
1.624e+02,3.80344
1.626e+02,3.80313
1.628e+02,3.80375
1.630e+02,3.80406
1.632e+02,3.80344
1.634e+02,3.80281
1.636e+02,3.8025
1.638e+02,3.80375
1.640e+02,3.80438
1.642e+02,3.80438
1.644e+02,3.80375
1.646e+02,3.80406
1.648e+02,3.80281
1.650e+02,3.80219
1.652e+02,3.80219
1.654e+02,3.8025
1.656e+02,3.80281
1.658e+02,3.80344
1.660e+02,3.80313
1.662e+02,3.80313
1.664e+02,3.80344
1.666e+02,3.80344
1.668e+02,3.80406
1.670e+02,3.80313
1.672e+02,3.80344
1.674e+02,3.80313
1.676e+02,3.80344
1.678e+02,3.80344
1.680e+02,3.8025
1.682e+02,3.80187
1.684e+02,3.80063
1.686e+02,3.80125
1.688e+02,3.80063
1.690e+02,3.80125
1.692e+02,3.80219
1.694e+02,3.80219
1.696e+02,3.80219
1.698e+02,3.80281
1.700e+02,3.80219
1.702e+02,3.80313
1.704e+02,3.8025
1.706e+02,3.80156
1.708e+02,3.80063
1.710e+02,3.80063
1.712e+02,3.80156
1.714e+02,3.80156
1.716e+02,3.80125
1.718e+02,3.80031
1.720e+02,3.80063
1.722e+02,3.80281
1.724e+02,3.80187
1.726e+02,3.8025
1.728e+02,3.8
1.730e+02,3.8
1.732e+02,3.8
1.734e+02,3.79937
1.736e+02,3.79969
1.738e+02,3.80063
1.740e+02,3.80031
1.742e+02,3.80031
1.744e+02,3.80031
1.746e+02,3.79969
1.748e+02,3.80031
1.750e+02,3.79969
1.752e+02,3.79937
1.754e+02,3.79875
1.756e+02,3.79875
1.758e+02,3.79937
1.760e+02,3.80063
1.762e+02,3.80156
1.764e+02,3.80125
1.766e+02,3.80031
1.768e+02,3.80125
1.770e+02,3.80063
1.772e+02,3.8
1.774e+02,3.80031
1.776e+02,3.79969
1.778e+02,3.8
1.780e+02,3.80031
1.782e+02,3.80031
1.784e+02,3.79906
1.786e+02,3.79937
1.788e+02,3.80031
1.790e+02,3.8
1.792e+02,3.79875
1.794e+02,3.79906
1.796e+02,3.79937
1.798e+02,3.79969
1.800e+02,3.79906
1.802e+02,3.79937
1.804e+02,3.79906
1.806e+02,3.79969
1.808e+02,3.79937
1.810e+02,3.79813
1.812e+02,3.79844
1.814e+02,3.79781
1.816e+02,3.79656
1.818e+02,3.79813
1.820e+02,3.79813
1.822e+02,3.79813
1.824e+02,3.79875
1.826e+02,3.79844
1.828e+02,3.79844
1.830e+02,3.79875
1.832e+02,3.79813
1.834e+02,3.79906
1.836e+02,3.79844
1.838e+02,3.79781
1.840e+02,3.79813
1.842e+02,3.79844
1.844e+02,3.79781
1.846e+02,3.79719
1.848e+02,3.7975
1.850e+02,3.79813
1.852e+02,3.79875
1.854e+02,3.79937
1.856e+02,3.79937
1.858e+02,3.79875
1.860e+02,3.8
1.862e+02,3.79906
1.864e+02,3.79937
1.866e+02,3.79937
1.868e+02,3.79844
1.870e+02,3.79906
1.872e+02,3.79969
1.874e+02,3.79844
1.876e+02,3.79875
1.878e+02,3.8
1.880e+02,3.79937
1.882e+02,3.8
1.884e+02,3.79906
1.886e+02,3.79875
1.888e+02,3.79937
1.890e+02,3.79937
1.892e+02,3.79875
1.894e+02,3.79906
1.896e+02,3.8
1.898e+02,3.79937
1.900e+02,3.79937
1.902e+02,3.79906
1.904e+02,3.79813
1.906e+02,3.79844
1.908e+02,3.79875
1.910e+02,3.7975
1.912e+02,3.79781
1.914e+02,3.7975
1.916e+02,3.7975
1.918e+02,3.7975
1.920e+02,3.79719
1.922e+02,3.79719
1.924e+02,3.7975
1.926e+02,3.79781
1.928e+02,3.79781
1.930e+02,3.79656
1.932e+02,3.79688
1.934e+02,3.79781
1.936e+02,3.79781
1.938e+02,3.79688
1.940e+02,3.79719
1.942e+02,3.79781
1.944e+02,3.79688
1.946e+02,3.79656
1.948e+02,3.79719
1.950e+02,3.7975
1.952e+02,3.79688
1.954e+02,3.79719
1.956e+02,3.79688
1.958e+02,3.79656
1.960e+02,3.79688
1.962e+02,3.795
1.964e+02,3.795
1.966e+02,3.795
1.968e+02,3.79594
1.970e+02,3.795
1.972e+02,3.79469
1.974e+02,3.79469
1.976e+02,3.79594
1.978e+02,3.795
1.980e+02,3.79531
1.982e+02,3.79531
1.984e+02,3.79406
1.986e+02,3.79375
1.988e+02,3.79344
1.990e+02,3.79312
1.992e+02,3.79375
1.994e+02,3.79344
1.996e+02,3.79312
1.998e+02,3.79281
2.000e+02,3.7925
2.002e+02,3.79281
2.004e+02,3.7925
2.006e+02,3.79188
2.008e+02,3.79281
2.010e+02,3.79344
2.012e+02,3.79312
2.014e+02,3.79281
2.016e+02,3.79312
2.018e+02,3.79281
2.020e+02,3.79406
2.022e+02,3.795
2.024e+02,3.79375
2.026e+02,3.7925
2.028e+02,3.79375
2.030e+02,3.79375
2.032e+02,3.79375
2.034e+02,3.79312
2.036e+02,3.7925
2.038e+02,3.79219
2.040e+02,3.7925
2.042e+02,3.79406
2.044e+02,3.79531
2.046e+02,3.79594
2.048e+02,3.795
2.050e+02,3.79438
2.052e+02,3.79375
2.054e+02,3.79312
2.056e+02,3.79312
2.058e+02,3.79312
2.060e+02,3.79281
2.062e+02,3.79438
2.064e+02,3.79344
2.066e+02,3.79344
2.068e+02,3.79375
2.070e+02,3.79406
2.072e+02,3.79406
2.074e+02,3.79375
2.076e+02,3.795
2.078e+02,3.795
2.080e+02,3.79375
2.082e+02,3.79344
2.084e+02,3.79344
2.086e+02,3.795
2.088e+02,3.79469
2.090e+02,3.79438
2.092e+02,3.79281
2.094e+02,3.79344
2.096e+02,3.79281
2.098e+02,3.79312
2.100e+02,3.7925
2.102e+02,3.79344
2.104e+02,3.79312
2.106e+02,3.79219
2.108e+02,3.79219
2.110e+02,3.79188
2.112e+02,3.79188
2.114e+02,3.79188
2.116e+02,3.79188
2.118e+02,3.79344
2.120e+02,3.79344
2.122e+02,3.7925
2.124e+02,3.79125
2.126e+02,3.79219
2.128e+02,3.79281
2.130e+02,3.79344
2.132e+02,3.79312
2.134e+02,3.7925
2.136e+02,3.79156
2.138e+02,3.79156
2.140e+02,3.79312
2.142e+02,3.79344
2.144e+02,3.79344
2.146e+02,3.79219
2.148e+02,3.79281
2.150e+02,3.79281
2.152e+02,3.7925
2.154e+02,3.79219
2.156e+02,3.79188
2.158e+02,3.7925
2.160e+02,3.79281
2.162e+02,3.79219
2.164e+02,3.79188
2.166e+02,3.79156
2.168e+02,3.79125
2.170e+02,3.79156
2.172e+02,3.79062
2.174e+02,3.79188
2.176e+02,3.79188
2.178e+02,3.79125
2.180e+02,3.79219
2.182e+02,3.79219
2.184e+02,3.7925
2.186e+02,3.7925
2.188e+02,3.7925
2.190e+02,3.79219
2.192e+02,3.79312
2.194e+02,3.79344
2.196e+02,3.79344
2.198e+02,3.79281
2.200e+02,3.79281
2.202e+02,3.79281
2.204e+02,3.7925
2.206e+02,3.79219
2.208e+02,3.7925
2.210e+02,3.7925
2.212e+02,3.79188
2.214e+02,3.79156
2.216e+02,3.79125
2.218e+02,3.79125
2.220e+02,3.79125
2.222e+02,3.79156
2.224e+02,3.79094
2.226e+02,3.7925
2.228e+02,3.79219
2.230e+02,3.79188
2.232e+02,3.79094
2.234e+02,3.79188
2.236e+02,3.79188
2.238e+02,3.79219
2.240e+02,3.79312
2.242e+02,3.79188
2.244e+02,3.79094
2.246e+02,3.78969
2.248e+02,3.78969
2.250e+02,3.79
2.252e+02,3.79
2.254e+02,3.79125
2.256e+02,3.79094
2.258e+02,3.79
2.260e+02,3.79094
2.262e+02,3.79188
2.264e+02,3.79062
2.266e+02,3.78969
2.268e+02,3.79
2.270e+02,3.78969
2.272e+02,3.79
2.274e+02,3.78969
2.276e+02,3.78969
2.278e+02,3.79062
2.280e+02,3.79125
2.282e+02,3.79
2.284e+02,3.79094
2.286e+02,3.79125
2.288e+02,3.79125
2.290e+02,3.79188
2.292e+02,3.79094
2.294e+02,3.79062
2.296e+02,3.79094
2.298e+02,3.78969
2.300e+02,3.78969
2.302e+02,3.79
2.304e+02,3.79094
2.306e+02,3.79062
2.308e+02,3.79
2.310e+02,3.79
2.312e+02,3.78969
2.314e+02,3.78969
2.316e+02,3.79
2.318e+02,3.78938
2.320e+02,3.78812
2.322e+02,3.78906
2.324e+02,3.78969
2.326e+02,3.79125
2.328e+02,3.79125
2.330e+02,3.79
2.332e+02,3.78969
2.334e+02,3.79062
2.336e+02,3.79
2.338e+02,3.78906
2.340e+02,3.78969
2.342e+02,3.79
2.344e+02,3.78969
2.346e+02,3.78844
2.348e+02,3.78844
2.350e+02,3.78875
2.352e+02,3.78969
2.354e+02,3.78906
2.356e+02,3.78969
2.358e+02,3.79
2.360e+02,3.78969
2.362e+02,3.78938
2.364e+02,3.78906
2.366e+02,3.78969
2.368e+02,3.78812
2.370e+02,3.78875
2.372e+02,3.78844
2.374e+02,3.78875
2.376e+02,3.78906
2.378e+02,3.78844
2.380e+02,3.78812
2.382e+02,3.7875
2.384e+02,3.78844
2.386e+02,3.78844
2.388e+02,3.78781
2.390e+02,3.7875
2.392e+02,3.78781
2.394e+02,3.78844
2.396e+02,3.78969
2.398e+02,3.78906
2.400e+02,3.78812
2.402e+02,3.78812
2.404e+02,3.78812
2.406e+02,3.78781
2.408e+02,3.78719
2.410e+02,3.7875
2.412e+02,3.78688
2.414e+02,3.78656
2.416e+02,3.78688
2.418e+02,3.7875
2.420e+02,3.78875
2.422e+02,3.78812
2.424e+02,3.78938
2.426e+02,3.78906
2.428e+02,3.78938
2.430e+02,3.78875
2.432e+02,3.78906
2.434e+02,3.78969
2.436e+02,3.78875
2.438e+02,3.78969
2.440e+02,3.78969
2.442e+02,3.78906
2.444e+02,3.78812
2.446e+02,3.78812
2.448e+02,3.78812
2.450e+02,3.78812
2.452e+02,3.78781
2.454e+02,3.78875
2.456e+02,3.7875
2.458e+02,3.78719
2.460e+02,3.7875
2.462e+02,3.78719
2.464e+02,3.78594
2.466e+02,3.78656
2.468e+02,3.78812
2.470e+02,3.7875
2.472e+02,3.78688
2.474e+02,3.78688
2.476e+02,3.78781
2.478e+02,3.78719
2.480e+02,3.78781
2.482e+02,3.78781
2.484e+02,3.7875
2.486e+02,3.78781
2.488e+02,3.7875
2.490e+02,3.78812
2.492e+02,3.78844
2.494e+02,3.78719
2.496e+02,3.78719
2.498e+02,3.78656
2.500e+02,3.78719
2.502e+02,3.78656
2.504e+02,3.78688
2.506e+02,3.78656
2.508e+02,3.78625
2.510e+02,3.78656
2.512e+02,3.78625
2.514e+02,3.78656
2.516e+02,3.78469
2.518e+02,3.78438
2.520e+02,3.78469
2.522e+02,3.78563
2.524e+02,3.78563
2.526e+02,3.78469
2.528e+02,3.78563
2.530e+02,3.78625
2.532e+02,3.78625
2.534e+02,3.78594
2.536e+02,3.78531
2.538e+02,3.78563
2.540e+02,3.78594
2.542e+02,3.78625
2.544e+02,3.78563
2.546e+02,3.78438
2.548e+02,3.78531
2.550e+02,3.78594
2.552e+02,3.78563
2.554e+02,3.78531
2.556e+02,3.78594
2.558e+02,3.78469
2.560e+02,3.78594
2.562e+02,3.78656
2.564e+02,3.78594
2.566e+02,3.78625
2.568e+02,3.78625
2.570e+02,3.78469
2.572e+02,3.78438
2.574e+02,3.78406
2.576e+02,3.78406
2.578e+02,3.78406
2.580e+02,3.78469
2.582e+02,3.78469
2.584e+02,3.78406
2.586e+02,3.78406
2.588e+02,3.78438
2.590e+02,3.78438
2.592e+02,3.78563
2.594e+02,3.78563
2.596e+02,3.78531
2.598e+02,3.78469
2.600e+02,3.78469
2.602e+02,3.78438
2.604e+02,3.78438
2.606e+02,3.78469
2.608e+02,3.78469
2.610e+02,3.78531
2.612e+02,3.78469
2.614e+02,3.78438
2.616e+02,3.78531
2.618e+02,3.78469
2.620e+02,3.78438
2.622e+02,3.78406
2.624e+02,3.78406
2.626e+02,3.78375
2.628e+02,3.78406
2.630e+02,3.78438
2.632e+02,3.78281
2.634e+02,3.78344
2.636e+02,3.78281
2.638e+02,3.78281
2.640e+02,3.78313
2.642e+02,3.78375
2.644e+02,3.7825
2.646e+02,3.78281
2.648e+02,3.78281
2.650e+02,3.78281
2.652e+02,3.7825
2.654e+02,3.78281
2.656e+02,3.78313
2.658e+02,3.78313
2.660e+02,3.7825
2.662e+02,3.78281
2.664e+02,3.78219
2.666e+02,3.78281
2.668e+02,3.78313
2.670e+02,3.78281
2.672e+02,3.78281
2.674e+02,3.78281
2.676e+02,3.78125
2.678e+02,3.78187
2.680e+02,3.78125
2.682e+02,3.78125
2.684e+02,3.7825
2.686e+02,3.78156
2.688e+02,3.78125
2.690e+02,3.78125
2.692e+02,3.78063
2.694e+02,3.78219
2.696e+02,3.78156
2.698e+02,3.78187
2.700e+02,3.78094
2.702e+02,3.78031
2.704e+02,3.78
2.706e+02,3.77875
2.708e+02,3.77813
2.710e+02,3.77844
2.712e+02,3.78063
2.714e+02,3.78063
2.716e+02,3.78063
2.718e+02,3.78063
2.720e+02,3.78031
2.722e+02,3.78063
2.724e+02,3.7825
2.726e+02,3.78187
2.728e+02,3.78125
2.730e+02,3.78219
2.732e+02,3.7825
2.734e+02,3.78156
2.736e+02,3.78031
2.738e+02,3.78094
2.740e+02,3.78063
2.742e+02,3.78031
2.744e+02,3.78156
2.746e+02,3.78063
2.748e+02,3.78156
2.750e+02,3.78125
2.752e+02,3.78156
2.754e+02,3.78094
2.756e+02,3.78187
2.758e+02,3.78094
2.760e+02,3.78125
2.762e+02,3.78125
2.764e+02,3.78063
2.766e+02,3.77937
2.768e+02,3.78125
2.770e+02,3.78219
2.772e+02,3.78125
2.774e+02,3.77875
2.776e+02,3.77875
2.778e+02,3.77937
2.780e+02,3.77937
2.782e+02,3.78
2.784e+02,3.77937
2.786e+02,3.78031
2.788e+02,3.78
2.790e+02,3.78063
2.792e+02,3.78094
2.794e+02,3.78125
2.796e+02,3.78031
2.798e+02,3.78156
2.800e+02,3.7825
2.802e+02,3.78219
2.804e+02,3.78031
2.806e+02,3.78094
2.808e+02,3.78094
2.810e+02,3.78156
2.812e+02,3.78156
2.814e+02,3.78094
2.816e+02,3.78094
2.818e+02,3.78031
2.820e+02,3.78094
2.822e+02,3.78031
2.824e+02,3.78156
2.826e+02,3.78063
2.828e+02,3.78094
2.830e+02,3.78
2.832e+02,3.77937
2.834e+02,3.78
2.836e+02,3.78031
2.838e+02,3.82375
2.840e+02,3.84781
2.842e+02,3.85031
2.844e+02,3.85094
2.846e+02,3.85219
2.848e+02,3.85312
2.850e+02,3.85531
2.852e+02,3.85563
2.854e+02,3.85531
2.856e+02,3.85594
2.858e+02,3.85688
2.860e+02,3.85781
2.862e+02,3.85813
2.864e+02,3.85875
2.866e+02,3.85906
2.868e+02,3.85906
2.870e+02,3.85969
2.872e+02,3.86031
2.874e+02,3.86
2.876e+02,3.86063
2.878e+02,3.86094
2.880e+02,3.86187
2.882e+02,3.86281
2.884e+02,3.86375
2.886e+02,3.865
2.888e+02,3.86313
2.890e+02,3.86344
2.892e+02,3.86563
2.894e+02,3.86531
2.896e+02,3.86563
2.898e+02,3.86656
2.900e+02,3.8675
2.902e+02,3.8675
2.904e+02,3.86781
2.906e+02,3.86813
2.908e+02,3.86875
2.910e+02,3.86906
2.912e+02,3.86875
2.914e+02,3.86875
2.916e+02,3.86906
2.918e+02,3.87094
2.920e+02,3.87156
2.922e+02,3.87094
2.924e+02,3.87125
2.926e+02,3.87188
2.928e+02,3.87312
2.930e+02,3.87281
2.932e+02,3.87281
2.934e+02,3.87281
2.936e+02,3.87344
2.938e+02,3.87406
2.940e+02,3.87438
2.942e+02,3.87562
2.944e+02,3.875
2.946e+02,3.87438
2.948e+02,3.87469
2.950e+02,3.87594
2.952e+02,3.87625
2.954e+02,3.87562
2.956e+02,3.87656
2.958e+02,3.875
2.960e+02,3.87562
2.962e+02,3.87688
2.964e+02,3.8775
2.966e+02,3.87781
2.968e+02,3.87781
2.970e+02,3.87813
2.972e+02,3.87844
2.974e+02,3.87969
2.976e+02,3.87938
2.978e+02,3.87938
2.980e+02,3.88094
2.982e+02,3.88094
2.984e+02,3.87969
2.986e+02,3.87938
2.988e+02,3.88031
2.990e+02,3.88
2.992e+02,3.87938
2.994e+02,3.87906
2.996e+02,3.88094
2.998e+02,3.88094
3.000e+02,3.88094
3.002e+02,3.88187
3.004e+02,3.88313
3.006e+02,3.88219
3.008e+02,3.88187
3.010e+02,3.8825
3.012e+02,3.88281
3.014e+02,3.88344
3.016e+02,3.88406
3.018e+02,3.88437
3.020e+02,3.88375
3.022e+02,3.88406
3.024e+02,3.88469
3.026e+02,3.88469
3.028e+02,3.88563
3.030e+02,3.885
3.032e+02,3.885
3.034e+02,3.88469
3.036e+02,3.88563
3.038e+02,3.885
3.040e+02,3.88625
3.042e+02,3.88656
3.044e+02,3.88625
3.046e+02,3.88563
3.048e+02,3.88625
3.050e+02,3.88688
3.052e+02,3.88688
3.054e+02,3.88625
3.056e+02,3.88563
3.058e+02,3.88625
3.060e+02,3.88688
3.062e+02,3.88531
3.064e+02,3.88688
3.066e+02,3.88688
3.068e+02,3.88625
3.070e+02,3.88625
3.072e+02,3.88719
3.074e+02,3.88781
3.076e+02,3.88844
3.078e+02,3.88844
3.080e+02,3.88844
3.082e+02,3.88875
3.084e+02,3.88813
3.086e+02,3.88781
3.088e+02,3.88813
3.090e+02,3.88875
3.092e+02,3.88813
3.094e+02,3.8875
3.096e+02,3.88688
3.098e+02,3.88875
3.100e+02,3.89
3.102e+02,3.88938
3.104e+02,3.88938
3.106e+02,3.88938
3.108e+02,3.88906
3.110e+02,3.88875
3.112e+02,3.88906
3.114e+02,3.89031
3.116e+02,3.89031
3.118e+02,3.88969
3.120e+02,3.89
3.122e+02,3.88938
3.124e+02,3.89062
3.126e+02,3.89031
3.128e+02,3.88969
3.130e+02,3.89062
3.132e+02,3.89031
3.134e+02,3.89062
3.136e+02,3.89188
3.138e+02,3.89188
3.140e+02,3.89219
3.142e+02,3.89094
3.144e+02,3.89188
3.146e+02,3.89188
3.148e+02,3.89344
3.150e+02,3.89281
3.152e+02,3.89281
3.154e+02,3.89312
3.156e+02,3.89344
3.158e+02,3.89406
3.160e+02,3.89469
3.162e+02,3.89406
3.164e+02,3.89375
3.166e+02,3.89469
3.168e+02,3.89438
3.170e+02,3.89375
3.172e+02,3.89375
3.174e+02,3.89375
3.176e+02,3.89438
3.178e+02,3.89344
3.180e+02,3.89375
3.182e+02,3.89438
3.184e+02,3.89438
3.186e+02,3.89469
3.188e+02,3.89531
3.190e+02,3.89469
3.192e+02,3.89406
3.194e+02,3.895
3.196e+02,3.89406
3.198e+02,3.89438
3.200e+02,3.89469
3.202e+02,3.89469
3.204e+02,3.895
3.206e+02,3.895
3.208e+02,3.895
3.210e+02,3.89531
3.212e+02,3.89562
3.214e+02,3.89625
3.216e+02,3.89625
3.218e+02,3.89562
3.220e+02,3.89625
3.222e+02,3.8975
3.224e+02,3.89719
3.226e+02,3.89688
3.228e+02,3.89719
3.230e+02,3.89594
3.232e+02,3.89625
3.234e+02,3.89625
3.236e+02,3.89625
3.238e+02,3.89594
3.240e+02,3.89594
3.242e+02,3.89469
3.244e+02,3.89469
3.246e+02,3.89562
3.248e+02,3.89531
3.250e+02,3.895
3.252e+02,3.89531
3.254e+02,3.89594
3.256e+02,3.89594
3.258e+02,3.89562
3.260e+02,3.89531
3.262e+02,3.89531
3.264e+02,3.89531
3.266e+02,3.89594
3.268e+02,3.89688
3.270e+02,3.89719
3.272e+02,3.8975
3.274e+02,3.8975
3.276e+02,3.89844
3.278e+02,3.89813
3.280e+02,3.89906
3.282e+02,3.89875
3.284e+02,3.89906
3.286e+02,3.89875
3.288e+02,3.89875
3.290e+02,3.89844
3.292e+02,3.89813
3.294e+02,3.89813
3.296e+02,3.89938
3.298e+02,3.89969
3.300e+02,3.90031
3.302e+02,3.89969
3.304e+02,3.90063
3.306e+02,3.90094
3.308e+02,3.89969
3.310e+02,3.9
3.312e+02,3.89969
3.314e+02,3.9
3.316e+02,3.90031
3.318e+02,3.90094
3.320e+02,3.90031
3.322e+02,3.90031
3.324e+02,3.90063
3.326e+02,3.90063
3.328e+02,3.90063
3.330e+02,3.9
3.332e+02,3.90031
3.334e+02,3.9
3.336e+02,3.90031
3.338e+02,3.90063
3.340e+02,3.90094
3.342e+02,3.90156
3.344e+02,3.90219
3.346e+02,3.90125
3.348e+02,3.89969
3.350e+02,3.9
3.352e+02,3.90063
3.354e+02,3.90031
3.356e+02,3.90094
3.358e+02,3.9025
3.360e+02,3.9025
3.362e+02,3.9025
3.364e+02,3.90344
3.366e+02,3.90375
3.368e+02,3.90313
3.370e+02,3.90281
3.372e+02,3.90281
3.374e+02,3.9025
3.376e+02,3.90219
3.378e+02,3.90156
3.380e+02,3.90281
3.382e+02,3.90313
3.384e+02,3.90281
3.386e+02,3.90313
3.388e+02,3.90219
3.390e+02,3.9025
3.392e+02,3.9025
3.394e+02,3.90219
3.396e+02,3.90344
3.398e+02,3.90313
3.400e+02,3.9025
3.402e+02,3.90313
3.404e+02,3.90156
3.406e+02,3.9025
3.408e+02,3.9025
3.410e+02,3.90375
3.412e+02,3.90375
3.414e+02,3.90281
3.416e+02,3.90313
3.418e+02,3.90313
3.420e+02,3.90313
3.422e+02,3.90375
3.424e+02,3.90313
3.426e+02,3.90344
3.428e+02,3.90344
3.430e+02,3.90406
3.432e+02,3.90344
3.434e+02,3.90344
3.436e+02,3.90313
3.438e+02,3.90344
3.440e+02,3.90406
3.442e+02,3.90437
3.444e+02,3.90469
3.446e+02,3.90469
3.448e+02,3.90469
3.450e+02,3.90469
3.452e+02,3.905
3.454e+02,3.90563
3.456e+02,3.90469
3.458e+02,3.90531
3.460e+02,3.905
3.462e+02,3.90406
3.464e+02,3.90406
3.466e+02,3.90437
3.468e+02,3.90437
3.470e+02,3.90375
3.472e+02,3.90437
3.474e+02,3.90406
3.476e+02,3.90531
3.478e+02,3.90656
3.480e+02,3.90625
3.482e+02,3.90531
3.484e+02,3.90437
3.486e+02,3.90531
3.488e+02,3.90563
3.490e+02,3.90594
3.492e+02,3.90594
3.494e+02,3.90437
3.496e+02,3.90469
3.498e+02,3.90563
3.500e+02,3.90437
3.502e+02,3.90469
3.504e+02,3.90563
3.506e+02,3.90563
3.508e+02,3.90563
3.510e+02,3.905
3.512e+02,3.90469
3.514e+02,3.905
3.516e+02,3.90437
3.518e+02,3.90437
3.520e+02,3.905
3.522e+02,3.90563
3.524e+02,3.90531
3.526e+02,3.90531
3.528e+02,3.90594
3.530e+02,3.90531
3.532e+02,3.90687
3.534e+02,3.90656
3.536e+02,3.90625
3.538e+02,3.90594
3.540e+02,3.90656
3.542e+02,3.90625
3.544e+02,3.90625
3.546e+02,3.90625
3.548e+02,3.90625
3.550e+02,3.90813
3.552e+02,3.90687
3.554e+02,3.90625
3.556e+02,3.90656
3.558e+02,3.90687
3.560e+02,3.90656
3.562e+02,3.90563
3.564e+02,3.90625
3.566e+02,3.90625
3.568e+02,3.90656
3.570e+02,3.90625
3.572e+02,3.90656
3.574e+02,3.90656
3.576e+02,3.90594
3.578e+02,3.90531
3.580e+02,3.90563
3.582e+02,3.905
3.584e+02,3.90563
3.586e+02,3.90563
3.588e+02,3.90625
3.590e+02,3.90656
3.592e+02,3.90625
3.594e+02,3.90437
3.596e+02,3.90406
3.598e+02,3.90531
3.600e+02,3.90594
3.602e+02,3.90625
3.604e+02,3.90656
3.606e+02,3.90656
3.608e+02,3.90656
3.610e+02,3.9075
3.612e+02,3.9075
3.614e+02,3.90781
3.616e+02,3.90844
3.618e+02,3.90656
3.620e+02,3.90625
3.622e+02,3.90563
3.624e+02,3.90656
3.626e+02,3.90687
3.628e+02,3.90625
3.630e+02,3.90687
3.632e+02,3.90656
3.634e+02,3.90625
3.636e+02,3.90781
3.638e+02,3.90563
3.640e+02,3.90437
3.642e+02,3.90594
3.644e+02,3.90625
3.646e+02,3.9075
3.648e+02,3.90625
3.650e+02,3.90687
3.652e+02,3.90656
3.654e+02,3.90563
3.656e+02,3.90687
3.658e+02,3.90687
3.660e+02,3.90687
3.662e+02,3.90781
3.664e+02,3.90687
3.666e+02,3.90844
3.668e+02,3.9075
3.670e+02,3.90781
3.672e+02,3.9075
3.674e+02,3.9075
3.676e+02,3.90813
3.678e+02,3.90813
3.680e+02,3.90813
3.682e+02,3.90844
3.684e+02,3.90875
3.686e+02,3.9075
3.688e+02,3.90781
3.690e+02,3.90844
3.692e+02,3.90813
3.694e+02,3.90813
3.696e+02,3.90687
3.698e+02,3.90687
3.700e+02,3.9075
3.702e+02,3.90781
3.704e+02,3.90781
3.706e+02,3.90813
3.708e+02,3.90625
3.710e+02,3.90781
3.712e+02,3.90813
3.714e+02,3.90875
3.716e+02,3.90687
3.718e+02,3.9075
3.720e+02,3.90813
3.722e+02,3.90813
3.724e+02,3.90844
3.726e+02,3.90844
3.728e+02,3.90781
3.730e+02,3.90813
3.732e+02,3.9075
3.734e+02,3.90813
3.736e+02,3.90844
3.738e+02,3.90813
3.740e+02,3.90844
3.742e+02,3.90969
3.744e+02,3.91
3.746e+02,3.90969
3.748e+02,3.90969
3.750e+02,3.90969
3.752e+02,3.90938
3.754e+02,3.90906
3.756e+02,3.90906
3.758e+02,3.90844
3.760e+02,3.90906
3.762e+02,3.90938
3.764e+02,3.90875
3.766e+02,3.90906
3.768e+02,3.90969
3.770e+02,3.91031
3.772e+02,3.90938
3.774e+02,3.90906
3.776e+02,3.90906
3.778e+02,3.90875
3.780e+02,3.91031
3.782e+02,3.90938
3.784e+02,3.90906
3.786e+02,3.90969
3.788e+02,3.91031
3.790e+02,3.90938
3.792e+02,3.90906
3.794e+02,3.90875
3.796e+02,3.90844
3.798e+02,3.90844
3.800e+02,3.90938
3.802e+02,3.90938
3.804e+02,3.90906
3.806e+02,3.90938
3.808e+02,3.90969
3.810e+02,3.90875
3.812e+02,3.90938
3.814e+02,3.90938
3.816e+02,3.90875
3.818e+02,3.90844
3.820e+02,3.90813
3.822e+02,3.90813
3.824e+02,3.90938
3.826e+02,3.90875
3.828e+02,3.90844
3.830e+02,3.90875
3.832e+02,3.90875
3.834e+02,3.90969
3.836e+02,3.91031
3.838e+02,3.91063
3.840e+02,3.90969
3.842e+02,3.90938
3.844e+02,3.91031
3.846e+02,3.91063
3.848e+02,3.91094
3.850e+02,3.91031
3.852e+02,3.90938
3.854e+02,3.91063
3.856e+02,3.91
3.858e+02,3.91063
3.860e+02,3.91031
3.862e+02,3.91094
3.864e+02,3.91063
3.866e+02,3.91125
3.868e+02,3.91063
3.870e+02,3.91094
3.872e+02,3.91156
3.874e+02,3.91063
3.876e+02,3.91063
3.878e+02,3.91188
3.880e+02,3.91125
3.882e+02,3.91156
3.884e+02,3.91188
3.886e+02,3.91156
3.888e+02,3.91094
3.890e+02,3.91031
3.892e+02,3.91094
3.894e+02,3.91063
3.896e+02,3.91
3.898e+02,3.91063
3.900e+02,3.91125
3.902e+02,3.91281
3.904e+02,3.91188
3.906e+02,3.91125
3.908e+02,3.91094
3.910e+02,3.91219
3.912e+02,3.91219
3.914e+02,3.91312
3.916e+02,3.91219
3.918e+02,3.91344
3.920e+02,3.91406
3.922e+02,3.91344
3.924e+02,3.91375
3.926e+02,3.91406
3.928e+02,3.91312
3.930e+02,3.91344
3.932e+02,3.91406
3.934e+02,3.91375
3.936e+02,3.91344
3.938e+02,3.91281
3.940e+02,3.91281
3.942e+02,3.91219
3.944e+02,3.91125
3.946e+02,3.91094
3.948e+02,3.91156
3.950e+02,3.91281
3.952e+02,3.91281
3.954e+02,3.91188
3.956e+02,3.91312
3.958e+02,3.91281
3.960e+02,3.91312
3.962e+02,3.91281
3.964e+02,3.91281
3.966e+02,3.91344
3.968e+02,3.91344
3.970e+02,3.91281
3.972e+02,3.91375
3.974e+02,3.91375
3.976e+02,3.91344
3.978e+02,3.91219
3.980e+02,3.91344
3.982e+02,3.91188
3.984e+02,3.91219
3.986e+02,3.91219
3.988e+02,3.91312
3.990e+02,3.91312
3.992e+02,3.91312
3.994e+02,3.91312
3.996e+02,3.91344
3.998e+02,3.91406
4.000e+02,3.91344
4.002e+02,3.91312
4.004e+02,3.91406
4.006e+02,3.91375
4.008e+02,3.91312
4.010e+02,3.91312
4.012e+02,3.91312
4.014e+02,3.91344
4.016e+02,3.91344
4.018e+02,3.91312
4.020e+02,3.91281
4.022e+02,3.91219
4.024e+02,3.91281
4.026e+02,3.91188
4.028e+02,3.91188
4.030e+02,3.91219
4.032e+02,3.91281
4.034e+02,3.91281
4.036e+02,3.91312
4.038e+02,3.91344
4.040e+02,3.91406
4.042e+02,3.91438
4.044e+02,3.91312
4.046e+02,3.91219
4.048e+02,3.91219
4.050e+02,3.91281
4.052e+02,3.91344
4.054e+02,3.91344
4.056e+02,3.91344
4.058e+02,3.91344
4.060e+02,3.91281
4.062e+02,3.91281
4.064e+02,3.91281
4.066e+02,3.91281
4.068e+02,3.91344
4.070e+02,3.91281
4.072e+02,3.91281
4.074e+02,3.91375
4.076e+02,3.91344
4.078e+02,3.91344
4.080e+02,3.91281
4.082e+02,3.91344
4.084e+02,3.91312
4.086e+02,3.91438
4.088e+02,3.91469
4.090e+02,3.915
4.092e+02,3.91469
4.094e+02,3.91406
4.096e+02,3.91375
4.098e+02,3.91375
4.100e+02,3.91406
4.102e+02,3.91344
4.104e+02,3.91281
4.106e+02,3.91344
4.108e+02,3.91375
4.110e+02,3.91406
4.112e+02,3.91438
4.114e+02,3.91406
4.116e+02,3.91469
4.118e+02,3.91375
4.120e+02,3.91406
4.122e+02,3.91438
4.124e+02,3.91406
4.126e+02,3.91406
4.128e+02,3.91312
4.130e+02,3.91344
4.132e+02,3.91438
4.134e+02,3.91438
4.136e+02,3.91469
4.138e+02,3.91375
4.140e+02,3.91312
4.142e+02,3.91406
4.144e+02,3.91406
4.146e+02,3.91438
4.148e+02,3.91469
4.150e+02,3.91438
4.152e+02,3.915
4.154e+02,3.91344
4.156e+02,3.91344
4.158e+02,3.91406
4.160e+02,3.91469
4.162e+02,3.91344
4.164e+02,3.91312
4.166e+02,3.91375
4.168e+02,3.91406
4.170e+02,3.91469
4.172e+02,3.91469
4.174e+02,3.91438
4.176e+02,3.91469
4.178e+02,3.91469
4.180e+02,3.91469
4.182e+02,3.91469
4.184e+02,3.91375
4.186e+02,3.91438
4.188e+02,3.91406
4.190e+02,3.91312
4.192e+02,3.91438
4.194e+02,3.91469
4.196e+02,3.91438
4.198e+02,3.91469
4.200e+02,3.91469
4.202e+02,3.91469
4.204e+02,3.91438
4.206e+02,3.91469
4.208e+02,3.91562
4.210e+02,3.915
4.212e+02,3.91594
4.214e+02,3.91562
4.216e+02,3.91531
4.218e+02,3.91562
4.220e+02,3.91406
4.222e+02,3.91344
4.224e+02,3.91469
4.226e+02,3.91469
4.228e+02,3.91438
4.230e+02,3.91531
4.232e+02,3.91469
4.234e+02,3.91406
4.236e+02,3.91469
4.238e+02,3.91469
4.240e+02,3.91438
4.242e+02,3.91469
4.244e+02,3.91375
4.246e+02,3.91312
4.248e+02,3.91312
4.250e+02,3.91406
4.252e+02,3.91344
4.254e+02,3.91375
4.256e+02,3.91312
4.258e+02,3.91375
4.260e+02,3.91562
4.262e+02,3.91562
4.264e+02,3.91531
4.266e+02,3.91625
4.268e+02,3.91594
4.270e+02,3.91438
4.272e+02,3.915
4.274e+02,3.915
4.276e+02,3.91531
4.278e+02,3.91469
4.280e+02,3.91438
4.282e+02,3.91406
4.284e+02,3.91469
4.286e+02,3.91344
4.288e+02,3.91312
4.290e+02,3.91375
4.292e+02,3.91406
4.294e+02,3.91406
4.296e+02,3.91375
4.298e+02,3.91281
4.300e+02,3.91469
4.302e+02,3.91438
4.304e+02,3.915
4.306e+02,3.91469
4.308e+02,3.91469
4.310e+02,3.91438
4.312e+02,3.91344
4.314e+02,3.91312
4.316e+02,3.91219
4.318e+02,3.91312
4.320e+02,3.91375
4.322e+02,3.91406
4.324e+02,3.91281
4.326e+02,3.91312
4.328e+02,3.91312
4.330e+02,3.91375
4.332e+02,3.915
4.334e+02,3.91562
4.336e+02,3.91594
4.338e+02,3.91562
4.340e+02,3.91562
4.342e+02,3.915
4.344e+02,3.91469
4.346e+02,3.915
4.348e+02,3.91531
4.350e+02,3.91531
4.352e+02,3.915
4.354e+02,3.91469
4.356e+02,3.915
4.358e+02,3.91469
4.360e+02,3.91469
4.362e+02,3.91438
4.364e+02,3.91469
4.366e+02,3.91344
4.368e+02,3.91375
4.370e+02,3.91469
4.372e+02,3.915
4.374e+02,3.91438
4.376e+02,3.91531
4.378e+02,3.91469
4.380e+02,3.91406
4.382e+02,3.91406
4.384e+02,3.915
4.386e+02,3.915
4.388e+02,3.91531
4.390e+02,3.91531
4.392e+02,3.91469
4.394e+02,3.91531
4.396e+02,3.91656
4.398e+02,3.91688
4.400e+02,3.91594
4.402e+02,3.91594
4.404e+02,3.91531
4.406e+02,3.91656
4.408e+02,3.91656
4.410e+02,3.91625
4.412e+02,3.91531
4.414e+02,3.91469
4.416e+02,3.91531
4.418e+02,3.91656
4.420e+02,3.91562
4.422e+02,3.91562
4.424e+02,3.91594
4.426e+02,3.91719
4.428e+02,3.91719
4.430e+02,3.91656
4.432e+02,3.91625
4.434e+02,3.91625
4.436e+02,3.91562
4.438e+02,3.915
4.440e+02,3.91594
4.442e+02,3.9175
4.444e+02,3.9175
4.446e+02,3.91688
4.448e+02,3.91688
4.450e+02,3.9175
4.452e+02,3.91656
4.454e+02,3.9175
4.456e+02,3.91625
4.458e+02,3.91625
4.460e+02,3.91625
4.462e+02,3.91594
4.464e+02,3.91625
4.466e+02,3.91656
4.468e+02,3.915
4.470e+02,3.915
4.472e+02,3.91469
4.474e+02,3.915
4.476e+02,3.91594
4.478e+02,3.91531
4.480e+02,3.915
4.482e+02,3.91438
4.484e+02,3.91594
4.486e+02,3.91562
4.488e+02,3.91562
4.490e+02,3.91562
4.492e+02,3.91438
4.494e+02,3.91438
4.496e+02,3.91594
4.498e+02,3.91594
4.500e+02,3.91531
4.502e+02,3.91469
4.504e+02,3.91469
4.506e+02,3.915
4.508e+02,3.91531
4.510e+02,3.91531
4.512e+02,3.91562
4.514e+02,3.91562
4.516e+02,3.91531
4.518e+02,3.91594
4.520e+02,3.91531
4.522e+02,3.91531
4.524e+02,3.91531
4.526e+02,3.91594
4.528e+02,3.91594
4.530e+02,3.91594
4.532e+02,3.91562
4.534e+02,3.91469
4.536e+02,3.91469
4.538e+02,3.91562
4.540e+02,3.91531
4.542e+02,3.915
4.544e+02,3.91469
4.546e+02,3.91594
4.548e+02,3.91625
4.550e+02,3.91625
4.552e+02,3.91656
4.554e+02,3.91531
4.556e+02,3.91531
4.558e+02,3.91531
4.560e+02,3.915
4.562e+02,3.91625
4.564e+02,3.91562
4.566e+02,3.91594
4.568e+02,3.91531
4.570e+02,3.91625
4.572e+02,3.91594
4.574e+02,3.91594
4.576e+02,3.91594
4.578e+02,3.91719
4.580e+02,3.91625
4.582e+02,3.91625
4.584e+02,3.91625
4.586e+02,3.91688
4.588e+02,3.91688
4.590e+02,3.9175
4.592e+02,3.91813
4.594e+02,3.91875
4.596e+02,3.91875
4.598e+02,3.9175
4.600e+02,3.91656
4.602e+02,3.91719
4.604e+02,3.91813
4.606e+02,3.91688
4.608e+02,3.91656
4.610e+02,3.91594
4.612e+02,3.91719
4.614e+02,3.91688
4.616e+02,3.91625
4.618e+02,3.91562
4.620e+02,3.91594
4.622e+02,3.91531
4.624e+02,3.915
4.626e+02,3.91469
4.628e+02,3.91438
4.630e+02,3.91438
4.632e+02,3.91438
4.634e+02,3.915
4.636e+02,3.91562
4.638e+02,3.91656
4.640e+02,3.90313
4.642e+02,3.86187
4.644e+02,3.83344
4.646e+02,3.83344
4.648e+02,3.83344
4.650e+02,3.83344
4.652e+02,3.83406
4.654e+02,3.83563
4.656e+02,3.83438
4.658e+02,3.83438
4.660e+02,3.83438
4.662e+02,3.83344
4.664e+02,3.8325
4.666e+02,3.8325
4.668e+02,3.83125
4.670e+02,3.83156
4.672e+02,3.83031
4.674e+02,3.83062
4.676e+02,3.83062
4.678e+02,3.83031
4.680e+02,3.82938
4.682e+02,3.82938
4.684e+02,3.82812
4.686e+02,3.82719
4.688e+02,3.82781
4.690e+02,3.82781
4.692e+02,3.82688
4.694e+02,3.82594
4.696e+02,3.82594
4.698e+02,3.82656
4.700e+02,3.82563
4.702e+02,3.82563
4.704e+02,3.825
4.706e+02,3.825
4.708e+02,3.82469
4.710e+02,3.82437
4.712e+02,3.82375
4.714e+02,3.82406
4.716e+02,3.82406
4.718e+02,3.82313
4.720e+02,3.82313
4.722e+02,3.82313
4.724e+02,3.82281
4.726e+02,3.82187
4.728e+02,3.82125
4.730e+02,3.82156
4.732e+02,3.82187
4.734e+02,3.82125
4.736e+02,3.82063
4.738e+02,3.82031
4.740e+02,3.82031
4.742e+02,3.81969
4.744e+02,3.81906
4.746e+02,3.81844
4.748e+02,3.81813
4.750e+02,3.8175
4.752e+02,3.81656
4.754e+02,3.81656
4.756e+02,3.8175
4.758e+02,3.81719
4.760e+02,3.81813
4.762e+02,3.81781
4.764e+02,3.8175
4.766e+02,3.8175
4.768e+02,3.8175
4.770e+02,3.8175
4.772e+02,3.81563
4.774e+02,3.81594
4.776e+02,3.81563
4.778e+02,3.81656
4.780e+02,3.815
4.782e+02,3.81438
4.784e+02,3.81375
4.786e+02,3.81219
4.788e+02,3.81219
4.790e+02,3.81312
4.792e+02,3.81188
4.794e+02,3.81031
4.796e+02,3.81
4.798e+02,3.81
4.800e+02,3.80969
4.802e+02,3.81031
4.804e+02,3.81
4.806e+02,3.81062
4.808e+02,3.81
4.810e+02,3.81
4.812e+02,3.80938
4.814e+02,3.80938
4.816e+02,3.80969
4.818e+02,3.80938
4.820e+02,3.80969
4.822e+02,3.80875
4.824e+02,3.80812
4.826e+02,3.80875
4.828e+02,3.80906
4.830e+02,3.80875
4.832e+02,3.80812
4.834e+02,3.80688
4.836e+02,3.80719
4.838e+02,3.80781
4.840e+02,3.8075
4.842e+02,3.8075
4.844e+02,3.80656
4.846e+02,3.80594
4.848e+02,3.80656
4.850e+02,3.80688
4.852e+02,3.80563
4.854e+02,3.80594
4.856e+02,3.80594
4.858e+02,3.80563
4.860e+02,3.80563
4.862e+02,3.80469
4.864e+02,3.80469
4.866e+02,3.80406
4.868e+02,3.80438
4.870e+02,3.80438
4.872e+02,3.80375
4.874e+02,3.80344
4.876e+02,3.80281
4.878e+02,3.80344
4.880e+02,3.8025
4.882e+02,3.80187
4.884e+02,3.80219
4.886e+02,3.80187
4.888e+02,3.80281
4.890e+02,3.80187
4.892e+02,3.80125
4.894e+02,3.80219
4.896e+02,3.80125
4.898e+02,3.80031
4.900e+02,3.80031
4.902e+02,3.79969
4.904e+02,3.80125
4.906e+02,3.80031
4.908e+02,3.79937
4.910e+02,3.8
4.912e+02,3.79844
4.914e+02,3.79875
4.916e+02,3.79844
4.918e+02,3.79844
4.920e+02,3.79781
4.922e+02,3.79688
4.924e+02,3.7975
4.926e+02,3.7975
4.928e+02,3.7975
4.930e+02,3.79781
4.932e+02,3.7975
4.934e+02,3.79719
4.936e+02,3.79625
4.938e+02,3.79594
4.940e+02,3.79594
4.942e+02,3.79625
4.944e+02,3.7975
4.946e+02,3.79719
4.948e+02,3.79719
4.950e+02,3.79688
4.952e+02,3.79781
4.954e+02,3.7975
4.956e+02,3.7975
4.958e+02,3.79719
4.960e+02,3.7975
4.962e+02,3.79813
4.964e+02,3.7975
4.966e+02,3.7975
4.968e+02,3.79656
4.970e+02,3.79594
4.972e+02,3.79531
4.974e+02,3.795
4.976e+02,3.79438
4.978e+02,3.79625
4.980e+02,3.79594
4.982e+02,3.79625
4.984e+02,3.79594
4.986e+02,3.79625
4.988e+02,3.79719
4.990e+02,3.79719
4.992e+02,3.79719
4.994e+02,3.79531
4.996e+02,3.79531
4.998e+02,3.79469
5.000e+02,3.79375
5.002e+02,3.79375
5.004e+02,3.79344
5.006e+02,3.79406
5.008e+02,3.79312
5.010e+02,3.79312
5.012e+02,3.79344
5.014e+02,3.79438
5.016e+02,3.79469
5.018e+02,3.79312
5.020e+02,3.79281
5.022e+02,3.79375
5.024e+02,3.79344
5.026e+02,3.79344
5.028e+02,3.79312
5.030e+02,3.79219
5.032e+02,3.79281
5.034e+02,3.7925
5.036e+02,3.79344
5.038e+02,3.79312
5.040e+02,3.79312
5.042e+02,3.7925
5.044e+02,3.7925
5.046e+02,3.7925
5.048e+02,3.79219
5.050e+02,3.7925
5.052e+02,3.79219
5.054e+02,3.79219
5.056e+02,3.79188
5.058e+02,3.79156
5.060e+02,3.79125
5.062e+02,3.79062
5.064e+02,3.78938
5.066e+02,3.78969
5.068e+02,3.78938
5.070e+02,3.79
5.072e+02,3.79062
5.074e+02,3.79
5.076e+02,3.79
5.078e+02,3.78938
5.080e+02,3.79
5.082e+02,3.79
5.084e+02,3.79125
5.086e+02,3.79188
5.088e+02,3.79094
5.090e+02,3.78875
5.092e+02,3.78656
5.094e+02,3.78656
5.096e+02,3.78688
5.098e+02,3.7875
5.100e+02,3.7875
5.102e+02,3.78688
5.104e+02,3.78625
5.106e+02,3.78656
5.108e+02,3.78531
5.110e+02,3.78563
5.112e+02,3.78594
5.114e+02,3.78563
5.116e+02,3.78438
5.118e+02,3.78594
5.120e+02,3.78563
5.122e+02,3.78469
5.124e+02,3.78281
5.126e+02,3.7825
5.128e+02,3.78344
5.130e+02,3.78313
5.132e+02,3.7825
5.134e+02,3.78344
5.136e+02,3.78344
5.138e+02,3.78281
5.140e+02,3.78281
5.142e+02,3.78344
5.144e+02,3.78281
5.146e+02,3.78313
5.148e+02,3.78406
5.150e+02,3.7825
5.152e+02,3.78187
5.154e+02,3.78281
5.156e+02,3.78281
5.158e+02,3.78156
5.160e+02,3.7825
5.162e+02,3.78344
5.164e+02,3.78313
5.166e+02,3.78375
5.168e+02,3.78406
5.170e+02,3.78313
5.172e+02,3.78469
5.174e+02,3.78281
5.176e+02,3.78281
5.178e+02,3.78344
5.180e+02,3.78406
5.182e+02,3.78281
5.184e+02,3.78281
5.186e+02,3.78313
5.188e+02,3.78313
5.190e+02,3.78281
5.192e+02,3.78313
5.194e+02,3.78281
5.196e+02,3.78313
5.198e+02,3.7825
5.200e+02,3.78281
5.202e+02,3.78344
5.204e+02,3.78281
5.206e+02,3.78187
5.208e+02,3.78094
5.210e+02,3.78125
5.212e+02,3.78187
5.214e+02,3.78187
5.216e+02,3.78156
5.218e+02,3.78125
5.220e+02,3.78063
5.222e+02,3.78031
5.224e+02,3.78094
5.226e+02,3.78125
5.228e+02,3.78156
5.230e+02,3.78125
5.232e+02,3.78156
5.234e+02,3.78094
5.236e+02,3.78094
5.238e+02,3.78187
5.240e+02,3.78125
5.242e+02,3.78156
5.244e+02,3.78063
5.246e+02,3.78063
5.248e+02,3.78
5.250e+02,3.78063
5.252e+02,3.78063
5.254e+02,3.78063
5.256e+02,3.78063
5.258e+02,3.78125
5.260e+02,3.78031
5.262e+02,3.78031
5.264e+02,3.78031
5.266e+02,3.77906
5.268e+02,3.77844
5.270e+02,3.77813
5.272e+02,3.77844
5.274e+02,3.78
5.276e+02,3.77875
5.278e+02,3.77937
5.280e+02,3.77937
5.282e+02,3.78
5.284e+02,3.78156
5.286e+02,3.77906
5.288e+02,3.77937
5.290e+02,3.77875
5.292e+02,3.77875
5.294e+02,3.77781
5.296e+02,3.77813
5.298e+02,3.77844
5.300e+02,3.77844
5.302e+02,3.77781
5.304e+02,3.7775
5.306e+02,3.7775
5.308e+02,3.77844
5.310e+02,3.7775
5.312e+02,3.77687
5.314e+02,3.77656
5.316e+02,3.77687
5.318e+02,3.77594
5.320e+02,3.77656
5.322e+02,3.77625
5.324e+02,3.77625
5.326e+02,3.77594
5.328e+02,3.775
5.330e+02,3.775
5.332e+02,3.77375
5.334e+02,3.77375
5.336e+02,3.77531
5.338e+02,3.77563
5.340e+02,3.77563
5.342e+02,3.77625
5.344e+02,3.77563
5.346e+02,3.77625
5.348e+02,3.77656
5.350e+02,3.77531
5.352e+02,3.77531
5.354e+02,3.77563
5.356e+02,3.77687
5.358e+02,3.77719
5.360e+02,3.7775
5.362e+02,3.7775
5.364e+02,3.77781
5.366e+02,3.7775
5.368e+02,3.77781
5.370e+02,3.77875
5.372e+02,3.77875
5.374e+02,3.77844
5.376e+02,3.77844
5.378e+02,3.77906
5.380e+02,3.77937
5.382e+02,3.77781
5.384e+02,3.77844
5.386e+02,3.77937
5.388e+02,3.77781
5.390e+02,3.77781
5.392e+02,3.77813
5.394e+02,3.77844
5.396e+02,3.77875
5.398e+02,3.77844
5.400e+02,3.7775
5.402e+02,3.7775
5.404e+02,3.77781
5.406e+02,3.77781
5.408e+02,3.77813
5.410e+02,3.77813
5.412e+02,3.77813
5.414e+02,3.7775
5.416e+02,3.77687
5.418e+02,3.7775
5.420e+02,3.77719
5.422e+02,3.77719
5.424e+02,3.77687
5.426e+02,3.77719
5.428e+02,3.77844
5.430e+02,3.7775
5.432e+02,3.77656
5.434e+02,3.77719
5.436e+02,3.77719
5.438e+02,3.77656
5.440e+02,3.775
5.442e+02,3.77625
5.444e+02,3.775
5.446e+02,3.77594
5.448e+02,3.7775
5.450e+02,3.77687
5.452e+02,3.77687
5.454e+02,3.77656
5.456e+02,3.775
5.458e+02,3.775
5.460e+02,3.77656
5.462e+02,3.77656
5.464e+02,3.77719
5.466e+02,3.77687
5.468e+02,3.77625
5.470e+02,3.77563
5.472e+02,3.77531
5.474e+02,3.77375
5.476e+02,3.77469
5.478e+02,3.77406
5.480e+02,3.77375
5.482e+02,3.77344
5.484e+02,3.77406
5.486e+02,3.77375
5.488e+02,3.77406
5.490e+02,3.77406
5.492e+02,3.775
5.494e+02,3.77469
5.496e+02,3.77469
5.498e+02,3.77469
5.500e+02,3.775
5.502e+02,3.77469
5.504e+02,3.77406
5.506e+02,3.77469
5.508e+02,3.77375
5.510e+02,3.775
5.512e+02,3.77406
5.514e+02,3.77594
5.516e+02,3.77563
5.518e+02,3.77594
5.520e+02,3.77531
5.522e+02,3.77375
5.524e+02,3.77344
5.526e+02,3.77344
5.528e+02,3.7725
5.530e+02,3.77188
5.532e+02,3.77156
5.534e+02,3.77156
5.536e+02,3.77156
5.538e+02,3.77188
5.540e+02,3.77313
5.542e+02,3.77375
5.544e+02,3.77375
5.546e+02,3.77344
5.548e+02,3.77344
5.550e+02,3.77313
5.552e+02,3.77375
5.554e+02,3.77281
5.556e+02,3.77375
5.558e+02,3.77344
5.560e+02,3.77375
5.562e+02,3.77344
5.564e+02,3.77375
5.566e+02,3.77406
5.568e+02,3.77406
5.570e+02,3.77344
5.572e+02,3.77344
5.574e+02,3.77375
5.576e+02,3.77469
5.578e+02,3.77281
5.580e+02,3.7725
5.582e+02,3.77219
5.584e+02,3.77188
5.586e+02,3.77125
5.588e+02,3.77313
5.590e+02,3.77313
5.592e+02,3.77281
5.594e+02,3.77344
5.596e+02,3.77281
5.598e+02,3.7725
5.600e+02,3.77313
5.602e+02,3.77156
5.604e+02,3.77156
5.606e+02,3.77219
5.608e+02,3.77219
5.610e+02,3.77188
5.612e+02,3.77156
5.614e+02,3.77
5.616e+02,3.77094
5.618e+02,3.77031
5.620e+02,3.77094
5.622e+02,3.77156
5.624e+02,3.77031
5.626e+02,3.77031
5.628e+02,3.77094
5.630e+02,3.77094
5.632e+02,3.77062
5.634e+02,3.77094
5.636e+02,3.77062
5.638e+02,3.77031
5.640e+02,3.77094
5.642e+02,3.77188
5.644e+02,3.77125
5.646e+02,3.77219
5.648e+02,3.77156
5.650e+02,3.77125
5.652e+02,3.77188
5.654e+02,3.77125
5.656e+02,3.77281
5.658e+02,3.77219
5.660e+02,3.77188
5.662e+02,3.77125
5.664e+02,3.77156
5.666e+02,3.77062
5.668e+02,3.77125
5.670e+02,3.77188
5.672e+02,3.77156
5.674e+02,3.77156
5.676e+02,3.77094
5.678e+02,3.77125
5.680e+02,3.77188
5.682e+02,3.77219
5.684e+02,3.77156
5.686e+02,3.77156
5.688e+02,3.77188
5.690e+02,3.77094
5.692e+02,3.77094
5.694e+02,3.77125
5.696e+02,3.77156
5.698e+02,3.77062
5.700e+02,3.77094
5.702e+02,3.77125
5.704e+02,3.77031
5.706e+02,3.76969
5.708e+02,3.77
5.710e+02,3.76969
5.712e+02,3.76969
5.714e+02,3.76875
5.716e+02,3.76844
5.718e+02,3.76781
5.720e+02,3.76844
5.722e+02,3.76938
5.724e+02,3.76938
5.726e+02,3.76812
5.728e+02,3.76875
5.730e+02,3.76938
5.732e+02,3.77
5.734e+02,3.77
5.736e+02,3.77
5.738e+02,3.76969
5.740e+02,3.76938
5.742e+02,3.76938
5.744e+02,3.77
5.746e+02,3.76969
5.748e+02,3.76938
5.750e+02,3.77
5.752e+02,3.77
5.754e+02,3.76969
5.756e+02,3.76875
5.758e+02,3.76938
5.760e+02,3.77
5.762e+02,3.76969
5.764e+02,3.76969
5.766e+02,3.76844
5.768e+02,3.76781
5.770e+02,3.76875
5.772e+02,3.76844
5.774e+02,3.76812
5.776e+02,3.76719
5.778e+02,3.76688
5.780e+02,3.76719
5.782e+02,3.76844
5.784e+02,3.76812
5.786e+02,3.76844
5.788e+02,3.76812
5.790e+02,3.7675
5.792e+02,3.76688
5.794e+02,3.76812
5.796e+02,3.76688
5.798e+02,3.76781
5.800e+02,3.76719
5.802e+02,3.76719
5.804e+02,3.7675
5.806e+02,3.76781
5.808e+02,3.76719
5.810e+02,3.76719
5.812e+02,3.7675
5.814e+02,3.76812
5.816e+02,3.76812
5.818e+02,3.7675
5.820e+02,3.76719
5.822e+02,3.76844
5.824e+02,3.76875
5.826e+02,3.76875
5.828e+02,3.76875
5.830e+02,3.76938
5.832e+02,3.76812
5.834e+02,3.76844
5.836e+02,3.76781
5.838e+02,3.7675
5.840e+02,3.76656
5.842e+02,3.76406
5.844e+02,3.76406
5.846e+02,3.765
5.848e+02,3.76562
5.850e+02,3.76531
5.852e+02,3.76625
5.854e+02,3.76688
5.856e+02,3.7675
5.858e+02,3.76625
5.860e+02,3.76594
5.862e+02,3.76656
5.864e+02,3.76656
5.866e+02,3.76562
5.868e+02,3.76562
5.870e+02,3.76531
5.872e+02,3.76562
5.874e+02,3.76688
5.876e+02,3.76656
5.878e+02,3.76625
5.880e+02,3.76625
5.882e+02,3.76562
5.884e+02,3.76594
5.886e+02,3.76562
5.888e+02,3.765
5.890e+02,3.76562
5.892e+02,3.76594
5.894e+02,3.76688
5.896e+02,3.76594
5.898e+02,3.76594
5.900e+02,3.76656
5.902e+02,3.765
5.904e+02,3.76531
5.906e+02,3.76406
5.908e+02,3.76406
5.910e+02,3.76406
5.912e+02,3.76406
5.914e+02,3.76438
5.916e+02,3.76313
5.918e+02,3.76281
5.920e+02,3.76469
5.922e+02,3.76438
5.924e+02,3.76406
5.926e+02,3.76406
5.928e+02,3.76406
5.930e+02,3.76469
5.932e+02,3.76469
5.934e+02,3.76469
5.936e+02,3.76438
5.938e+02,3.76406
5.940e+02,3.76281
5.942e+02,3.76219
5.944e+02,3.76281
5.946e+02,3.76281
5.948e+02,3.76438
5.950e+02,3.76344
5.952e+02,3.76406
5.954e+02,3.76438
5.956e+02,3.76406
5.958e+02,3.76344
5.960e+02,3.76406
5.962e+02,3.76406
5.964e+02,3.76313
5.966e+02,3.76406
5.968e+02,3.76406
5.970e+02,3.76344
5.972e+02,3.76469
5.974e+02,3.76438
5.976e+02,3.76406
5.978e+02,3.76406
5.980e+02,3.76562
5.982e+02,3.76625
5.984e+02,3.76469
5.986e+02,3.76438
5.988e+02,3.76344
5.990e+02,3.76219
5.992e+02,3.76219
5.994e+02,3.76156
5.996e+02,3.76187
5.998e+02,3.76156
6.000e+02,3.76187
6.002e+02,3.76344
6.004e+02,3.76438
6.006e+02,3.76344
6.008e+02,3.765
6.010e+02,3.76438
6.012e+02,3.76469
6.014e+02,3.76344
6.016e+02,3.76438
6.018e+02,3.76469
6.020e+02,3.76438
6.022e+02,3.7625
6.024e+02,3.76219
6.026e+02,3.76219
6.028e+02,3.76187
6.030e+02,3.76344
6.032e+02,3.76469
6.034e+02,3.76438
6.036e+02,3.76469
6.038e+02,3.765
6.040e+02,3.76562
6.042e+02,3.76531
6.044e+02,3.76531
6.046e+02,3.76469
6.048e+02,3.76594
6.050e+02,3.76625
6.052e+02,3.76594
6.054e+02,3.76656
6.056e+02,3.76562
6.058e+02,3.76562
6.060e+02,3.76625
6.062e+02,3.76594
6.064e+02,3.76438
6.066e+02,3.76531
6.068e+02,3.76594
6.070e+02,3.76594
6.072e+02,3.76625
6.074e+02,3.76719
6.076e+02,3.76562
6.078e+02,3.76594
6.080e+02,3.76594
6.082e+02,3.76594
6.084e+02,3.765
6.086e+02,3.76594
6.088e+02,3.76656
6.090e+02,3.76594
6.092e+02,3.76531
6.094e+02,3.76469
6.096e+02,3.76531
6.098e+02,3.765
6.100e+02,3.76438
6.102e+02,3.76469
6.104e+02,3.76469
6.106e+02,3.76438
6.108e+02,3.76438
6.110e+02,3.76469
6.112e+02,3.76531
6.114e+02,3.76562
6.116e+02,3.76562
6.118e+02,3.76531
6.120e+02,3.76531
6.122e+02,3.76469
6.124e+02,3.76438
6.126e+02,3.76438
6.128e+02,3.76406
6.130e+02,3.76469
6.132e+02,3.76469
6.134e+02,3.76562
6.136e+02,3.76531
6.138e+02,3.76469
6.140e+02,3.76469
6.142e+02,3.76281
6.144e+02,3.76344
6.146e+02,3.76313
6.148e+02,3.76187
6.150e+02,3.76281
6.152e+02,3.76313
6.154e+02,3.76187
6.156e+02,3.7625
6.158e+02,3.765
6.160e+02,3.76469
6.162e+02,3.76438
6.164e+02,3.76406
6.166e+02,3.76469
6.168e+02,3.76438
6.170e+02,3.76406
6.172e+02,3.76438
6.174e+02,3.76438
6.176e+02,3.76469
6.178e+02,3.76562
6.180e+02,3.765
6.182e+02,3.76469
6.184e+02,3.76469
6.186e+02,3.76469
6.188e+02,3.76562
6.190e+02,3.76594
6.192e+02,3.765
6.194e+02,3.76562
6.196e+02,3.76562
6.198e+02,3.765
6.200e+02,3.76438
6.202e+02,3.76469
6.204e+02,3.76438
6.206e+02,3.76531
6.208e+02,3.765
6.210e+02,3.765
6.212e+02,3.76562
6.214e+02,3.76562
6.216e+02,3.76594
6.218e+02,3.76562
6.220e+02,3.76781
6.222e+02,3.7675
6.224e+02,3.76562
6.226e+02,3.76562
6.228e+02,3.76562
6.230e+02,3.76594
6.232e+02,3.76625
6.234e+02,3.765
6.236e+02,3.765
6.238e+02,3.76594
6.240e+02,3.76562
6.242e+02,3.76562
6.244e+02,3.76594
6.246e+02,3.76594
6.248e+02,3.76594
6.250e+02,3.76625
6.252e+02,3.76625
6.254e+02,3.76594
6.256e+02,3.76562
6.258e+02,3.76688
6.260e+02,3.76656
6.262e+02,3.76656
6.264e+02,3.76688
6.266e+02,3.76562
6.268e+02,3.76469
6.270e+02,3.76469
6.272e+02,3.765
6.274e+02,3.76562
6.276e+02,3.76625
6.278e+02,3.76594
6.280e+02,3.76594
6.282e+02,3.76562
6.284e+02,3.76531
6.286e+02,3.765
6.288e+02,3.76469
6.290e+02,3.765
6.292e+02,3.765
6.294e+02,3.76562
6.296e+02,3.765
6.298e+02,3.76594
6.300e+02,3.76531
6.302e+02,3.76406
6.304e+02,3.76469
6.306e+02,3.76531
6.308e+02,3.765
6.310e+02,3.76344
6.312e+02,3.76344
6.314e+02,3.76406
6.316e+02,3.76344
6.318e+02,3.76469
6.320e+02,3.76406
6.322e+02,3.76313
6.324e+02,3.76313
6.326e+02,3.76406
6.328e+02,3.76438
6.330e+02,3.76313
6.332e+02,3.76344
6.334e+02,3.76438
6.336e+02,3.76438
6.338e+02,3.76438
6.340e+02,3.76406
6.342e+02,3.76313
6.344e+02,3.76344
6.346e+02,3.76438
6.348e+02,3.76438
6.350e+02,3.76531
6.352e+02,3.76531
6.354e+02,3.765
6.356e+02,3.76469
6.358e+02,3.76344
6.360e+02,3.76406
6.362e+02,3.76438
6.364e+02,3.76406
6.366e+02,3.76406
6.368e+02,3.76344
6.370e+02,3.76313
6.372e+02,3.76313
6.374e+02,3.76313
6.376e+02,3.76313
6.378e+02,3.76406
6.380e+02,3.7625
6.382e+02,3.76281
6.384e+02,3.76313
6.386e+02,3.76313
6.388e+02,3.76281
6.390e+02,3.76219
6.392e+02,3.76344
6.394e+02,3.76438
6.396e+02,3.76438
6.398e+02,3.76469
6.400e+02,3.76406
6.402e+02,3.76406
6.404e+02,3.76469
6.406e+02,3.76438
6.408e+02,3.76406
6.410e+02,3.76063
6.412e+02,3.75969
6.414e+02,3.75969
6.416e+02,3.76031
6.418e+02,3.75687
6.420e+02,3.75625
6.422e+02,3.75656
6.424e+02,3.75656
6.426e+02,3.75594
6.428e+02,3.75656
6.430e+02,3.75594
6.432e+02,3.75531
6.434e+02,3.75687
6.436e+02,3.75656
6.438e+02,3.75625
6.440e+02,3.75563
6.442e+02,3.75563
6.444e+02,3.75563
6.446e+02,3.75625
6.448e+02,3.75687
6.450e+02,3.75719
6.452e+02,3.75563
6.454e+02,3.75625
6.456e+02,3.7575
6.458e+02,3.75625
6.460e+02,3.75687
6.462e+02,3.75687
6.464e+02,3.75656
6.466e+02,3.75656
6.468e+02,3.75625
6.470e+02,3.75563
6.472e+02,3.75531
6.474e+02,3.75594
6.476e+02,3.755
6.478e+02,3.755
6.480e+02,3.75594
6.482e+02,3.755
6.484e+02,3.75469
6.486e+02,3.75406
6.488e+02,3.75344
6.490e+02,3.75438
6.492e+02,3.75438
6.494e+02,3.75531
6.496e+02,3.75563
6.498e+02,3.75438
6.500e+02,3.75344
6.502e+02,3.75375
6.504e+02,3.75281
6.506e+02,3.7525
6.508e+02,3.7525
6.510e+02,3.7525
6.512e+02,3.75406
6.514e+02,3.7525
6.516e+02,3.75344
6.518e+02,3.75375
6.520e+02,3.75375
6.522e+02,3.75438
6.524e+02,3.75469
6.526e+02,3.75469
6.528e+02,3.755
6.530e+02,3.75563
6.532e+02,3.75531
6.534e+02,3.755
6.536e+02,3.75563
6.538e+02,3.75625
6.540e+02,3.755
6.542e+02,3.75563
6.544e+02,3.75469
6.546e+02,3.75469
6.548e+02,3.755
6.550e+02,3.755
6.552e+02,3.75469
6.554e+02,3.75469
6.556e+02,3.75563
6.558e+02,3.75438
6.560e+02,3.75406
6.562e+02,3.75469
6.564e+02,3.75438
6.566e+02,3.75406
6.568e+02,3.75438
6.570e+02,3.75281
6.572e+02,3.75344
6.574e+02,3.75406
6.576e+02,3.75406
6.578e+02,3.75469
6.580e+02,3.75438
6.582e+02,3.75375
6.584e+02,3.75375
6.586e+02,3.75375
6.588e+02,3.75375
6.590e+02,3.75375
6.592e+02,3.7525
6.594e+02,3.75219
6.596e+02,3.7525
6.598e+02,3.7525
6.600e+02,3.75281
6.602e+02,3.75188
6.604e+02,3.7525
6.606e+02,3.75219
6.608e+02,3.75188
6.610e+02,3.75156
6.612e+02,3.75125
6.614e+02,3.75219
6.616e+02,3.75188
6.618e+02,3.75094
6.620e+02,3.75156
6.622e+02,3.75031
6.624e+02,3.75094
6.626e+02,3.75125
6.628e+02,3.75188
6.630e+02,3.75219
6.632e+02,3.7525
6.634e+02,3.75125
6.636e+02,3.75156
6.638e+02,3.75188
6.640e+02,3.75156
6.642e+02,3.75094
6.644e+02,3.75125
6.646e+02,3.75062
6.648e+02,3.75031
6.650e+02,3.75094
6.652e+02,3.75
6.654e+02,3.75062
6.656e+02,3.75
6.658e+02,3.74969
6.660e+02,3.75031
6.662e+02,3.75062
6.664e+02,3.75125
6.666e+02,3.75156
6.668e+02,3.75156
6.670e+02,3.75125
6.672e+02,3.75156
6.674e+02,3.75094
6.676e+02,3.75062
6.678e+02,3.75062
6.680e+02,3.75
6.682e+02,3.75156
6.684e+02,3.75125
6.686e+02,3.75094
6.688e+02,3.75094
6.690e+02,3.75094
6.692e+02,3.75156
6.694e+02,3.75125
6.696e+02,3.75125
6.698e+02,3.75125
6.700e+02,3.75094
6.702e+02,3.75062
6.704e+02,3.75094
6.706e+02,3.75062
6.708e+02,3.75
6.710e+02,3.75062
6.712e+02,3.75156
6.714e+02,3.75094
6.716e+02,3.75062
6.718e+02,3.75094
6.720e+02,3.75094
6.722e+02,3.75094
6.724e+02,3.75
6.726e+02,3.75094
6.728e+02,3.75
6.730e+02,3.74969
6.732e+02,3.75125
6.734e+02,3.75031
6.736e+02,3.74969
6.738e+02,3.74969
6.740e+02,3.74938
6.742e+02,3.75
6.744e+02,3.75031
6.746e+02,3.74812
6.748e+02,3.74844
6.750e+02,3.74969
6.752e+02,3.74906
6.754e+02,3.74969
6.756e+02,3.74906
6.758e+02,3.75031
6.760e+02,3.75031
6.762e+02,3.75
6.764e+02,3.75031
6.766e+02,3.75062
6.768e+02,3.74969
6.770e+02,3.74969
6.772e+02,3.74969
6.774e+02,3.75
6.776e+02,3.74938
6.778e+02,3.74875
6.780e+02,3.74906
6.782e+02,3.74812
6.784e+02,3.74875
6.786e+02,3.74812
6.788e+02,3.74844
6.790e+02,3.7475
6.792e+02,3.7475
6.794e+02,3.74844
6.796e+02,3.74844
6.798e+02,3.74969
6.800e+02,3.75
6.802e+02,3.75125
6.804e+02,3.74969
6.806e+02,3.74875
6.808e+02,3.74906
6.810e+02,3.74875
6.812e+02,3.74938
6.814e+02,3.74969
6.816e+02,3.7475
6.818e+02,3.74844
6.820e+02,3.74906
6.822e+02,3.75062
6.824e+02,3.74938
6.826e+02,3.74875
6.828e+02,3.75
6.830e+02,3.74969
6.832e+02,3.75
6.834e+02,3.74969
6.836e+02,3.74875
6.838e+02,3.74875
6.840e+02,3.74938
6.842e+02,3.74812
6.844e+02,3.74719
6.846e+02,3.7475
6.848e+02,3.7475
6.850e+02,3.7475
6.852e+02,3.74844
6.854e+02,3.74812
6.856e+02,3.74688
6.858e+02,3.74719
6.860e+02,3.7475
6.862e+02,3.74719
6.864e+02,3.74719
6.866e+02,3.74719
6.868e+02,3.74812
6.870e+02,3.74688
6.872e+02,3.74719
6.874e+02,3.74688
6.876e+02,3.74688
6.878e+02,3.74688
6.880e+02,3.74688
6.882e+02,3.74719
6.884e+02,3.7475
6.886e+02,3.74656
6.888e+02,3.7475
6.890e+02,3.7475
6.892e+02,3.74812
6.894e+02,3.74656
6.896e+02,3.74594
6.898e+02,3.74688
6.900e+02,3.7475
6.902e+02,3.7475
6.904e+02,3.74719
6.906e+02,3.74812
6.908e+02,3.74812
6.910e+02,3.74875
6.912e+02,3.75
6.914e+02,3.74812
6.916e+02,3.74906
6.918e+02,3.75
6.920e+02,3.74875
6.922e+02,3.74812
6.924e+02,3.74844
6.926e+02,3.74812
6.928e+02,3.74812
6.930e+02,3.7475
6.932e+02,3.74656
6.934e+02,3.74719
6.936e+02,3.74844
6.938e+02,3.74719
6.940e+02,3.7475
6.942e+02,3.74719
6.944e+02,3.74719
6.946e+02,3.74656
6.948e+02,3.74688
6.950e+02,3.74812
6.952e+02,3.74844
6.954e+02,3.74625
6.956e+02,3.74719
6.958e+02,3.74812
6.960e+02,3.74844
6.962e+02,3.74844
6.964e+02,3.74688
6.966e+02,3.74844
6.968e+02,3.74719
6.970e+02,3.74719
6.972e+02,3.74812
6.974e+02,3.74844
6.976e+02,3.74812
6.978e+02,3.74719
6.980e+02,3.74812
6.982e+02,3.74844
6.984e+02,3.74938
6.986e+02,3.74844
6.988e+02,3.7475
6.990e+02,3.74844
6.992e+02,3.74844
6.994e+02,3.74844
6.996e+02,3.7475
6.998e+02,3.7475
7.000e+02,3.7475
7.002e+02,3.74719
7.004e+02,3.74719
7.006e+02,3.74688
7.008e+02,3.74625
7.010e+02,3.74656
7.012e+02,3.74656
7.014e+02,3.74812
7.016e+02,3.7475
7.018e+02,3.74719
7.020e+02,3.74688
7.022e+02,3.74719
7.024e+02,3.74656
7.026e+02,3.74562
7.028e+02,3.74469
7.030e+02,3.745
7.032e+02,3.74531
7.034e+02,3.74531
7.036e+02,3.74531
7.038e+02,3.74562
7.040e+02,3.74562
7.042e+02,3.74594
7.044e+02,3.74594
7.046e+02,3.74625
7.048e+02,3.74688
7.050e+02,3.74625
7.052e+02,3.74531
7.054e+02,3.74469
7.056e+02,3.74531
7.058e+02,3.74594
7.060e+02,3.74531
7.062e+02,3.74562
7.064e+02,3.74438
7.066e+02,3.745
7.068e+02,3.74531
7.070e+02,3.74531
7.072e+02,3.74531
7.074e+02,3.74562
7.076e+02,3.745
7.078e+02,3.74625
7.080e+02,3.745
7.082e+02,3.74531
7.084e+02,3.74562
7.086e+02,3.745
7.088e+02,3.745
7.090e+02,3.74469
7.092e+02,3.74562
7.094e+02,3.74531
7.096e+02,3.74531
7.098e+02,3.74594
7.100e+02,3.74656
7.102e+02,3.74688
7.104e+02,3.74656
7.106e+02,3.74656
7.108e+02,3.7475
7.110e+02,3.74656
7.112e+02,3.74656
7.114e+02,3.74688
7.116e+02,3.74594
7.118e+02,3.74625
7.120e+02,3.74562
7.122e+02,3.74531
7.124e+02,3.74594
7.126e+02,3.745
7.128e+02,3.74469
7.130e+02,3.745
7.132e+02,3.74438
7.134e+02,3.74438
7.136e+02,3.74469
7.138e+02,3.74438
7.140e+02,3.74469
7.142e+02,3.74531
7.144e+02,3.74562
7.146e+02,3.74531
7.148e+02,3.745
7.150e+02,3.74438
7.152e+02,3.74406
7.154e+02,3.74375
7.156e+02,3.74281
7.158e+02,3.74281
7.160e+02,3.74313
7.162e+02,3.74375
7.164e+02,3.74281
7.166e+02,3.74281
7.168e+02,3.74344
7.170e+02,3.74406
7.172e+02,3.74344
7.174e+02,3.74281
7.176e+02,3.74313
7.178e+02,3.74406
7.180e+02,3.74375
7.182e+02,3.74344
7.184e+02,3.74375
7.186e+02,3.74344
7.188e+02,3.74406
7.190e+02,3.74375
7.192e+02,3.74375
7.194e+02,3.74344
7.196e+02,3.74375
7.198e+02,3.74375
7.200e+02,3.74375
7.202e+02,3.74469
7.204e+02,3.74469
7.206e+02,3.74531
7.208e+02,3.74531
7.210e+02,3.74594
7.212e+02,3.74625
7.214e+02,3.74562
7.216e+02,3.74594
7.218e+02,3.74531
7.220e+02,3.74406
7.222e+02,3.74438
7.224e+02,3.74562
7.226e+02,3.74438
7.228e+02,3.74375
7.230e+02,3.74438
7.232e+02,3.74406
7.234e+02,3.74438
7.236e+02,3.74344
7.238e+02,3.74375
7.240e+02,3.74438
7.242e+02,3.74375
7.244e+02,3.74313
7.246e+02,3.74344
7.248e+02,3.745
7.250e+02,3.745
7.252e+02,3.74406
7.254e+02,3.745
7.256e+02,3.745
7.258e+02,3.74469
7.260e+02,3.74531
7.262e+02,3.74562
7.264e+02,3.74469
7.266e+02,3.74469
7.268e+02,3.74469
7.270e+02,3.74562
7.272e+02,3.74469
7.274e+02,3.74406
7.276e+02,3.74531
7.278e+02,3.74531
7.280e+02,3.74531
7.282e+02,3.74469
7.284e+02,3.745
7.286e+02,3.74469
7.288e+02,3.745
7.290e+02,3.74094
7.292e+02,3.74125
7.294e+02,3.74188
7.296e+02,3.74281
7.298e+02,3.74156
7.300e+02,3.74219
7.302e+02,3.74188
7.304e+02,3.74219
7.306e+02,3.74281
7.308e+02,3.74281
7.310e+02,3.74219
7.312e+02,3.74313
7.314e+02,3.74219
7.316e+02,3.74219
7.318e+02,3.74281
7.320e+02,3.74344
7.322e+02,3.74313
7.324e+02,3.74156
7.326e+02,3.74125
7.328e+02,3.74156
7.330e+02,3.74156
7.332e+02,3.74188
7.334e+02,3.74094
7.336e+02,3.74281
7.338e+02,3.74375
7.340e+02,3.74219
7.342e+02,3.74219
7.344e+02,3.74219
7.346e+02,3.74375
7.348e+02,3.74375
7.350e+02,3.74313
7.352e+02,3.74188
7.354e+02,3.74094
7.356e+02,3.74219
7.358e+02,3.74313
7.360e+02,3.74281
7.362e+02,3.74313
7.364e+02,3.74156
7.366e+02,3.74281
7.368e+02,3.74406
7.370e+02,3.74219
7.372e+02,3.74063
7.374e+02,3.74063
7.376e+02,3.74063
7.378e+02,3.74156
7.380e+02,3.74094
7.382e+02,3.74094
7.384e+02,3.74125
7.386e+02,3.74125
7.388e+02,3.74156
7.390e+02,3.74094
7.392e+02,3.74156
7.394e+02,3.74156
7.396e+02,3.74156
7.398e+02,3.74281
7.400e+02,3.74219
7.402e+02,3.74219
7.404e+02,3.74156
7.406e+02,3.74125
7.408e+02,3.74031
7.410e+02,3.74031
7.412e+02,3.74125
7.414e+02,3.74125
7.416e+02,3.74125
7.418e+02,3.74063
7.420e+02,3.74094
7.422e+02,3.74094
7.424e+02,3.74094
7.426e+02,3.74063
7.428e+02,3.74125
7.430e+02,3.74156
7.432e+02,3.74188
7.434e+02,3.74125
7.436e+02,3.74063
7.438e+02,3.74063
7.440e+02,3.74094
7.442e+02,3.74094
7.444e+02,3.74125
7.446e+02,3.74156
7.448e+02,3.74156
7.450e+02,3.74125
7.452e+02,3.74156
7.454e+02,3.74188
7.456e+02,3.74219
7.458e+02,3.74188
7.460e+02,3.74281
7.462e+02,3.74281
7.464e+02,3.74281
7.466e+02,3.74219
7.468e+02,3.74063
7.470e+02,3.74031
7.472e+02,3.74031
7.474e+02,3.74
7.476e+02,3.74031
7.478e+02,3.74063
7.480e+02,3.74156
7.482e+02,3.74125
7.484e+02,3.74094
7.486e+02,3.74031
7.488e+02,3.74125
7.490e+02,3.74063
7.492e+02,3.74031
7.494e+02,3.73906
7.496e+02,3.73937
7.498e+02,3.73844
7.500e+02,3.73937
7.502e+02,3.73969
7.504e+02,3.73937
7.506e+02,3.73906
7.508e+02,3.73906
7.510e+02,3.73875
7.512e+02,3.73906
7.514e+02,3.73813
7.516e+02,3.73813
7.518e+02,3.73813
7.520e+02,3.7375
7.522e+02,3.73781
7.524e+02,3.73781
7.526e+02,3.73687
7.528e+02,3.73781
7.530e+02,3.73781
7.532e+02,3.7375
7.534e+02,3.73656
7.536e+02,3.73656
7.538e+02,3.73687
7.540e+02,3.73875
7.542e+02,3.7375
7.544e+02,3.73781
7.546e+02,3.73813
7.548e+02,3.73687
7.550e+02,3.73625
7.552e+02,3.73656
7.554e+02,3.73687
7.556e+02,3.7375
7.558e+02,3.7375
7.560e+02,3.73781
7.562e+02,3.73844
7.564e+02,3.73781
7.566e+02,3.73906
7.568e+02,3.73813
7.570e+02,3.73844
7.572e+02,3.73813
7.574e+02,3.73813
7.576e+02,3.73687
7.578e+02,3.73781
7.580e+02,3.7375
7.582e+02,3.7375
7.584e+02,3.73687
7.586e+02,3.73656
7.588e+02,3.7375
7.590e+02,3.73594
7.592e+02,3.73656
7.594e+02,3.73625
7.596e+02,3.73594
7.598e+02,3.73625
7.600e+02,3.73594
7.602e+02,3.73563
7.604e+02,3.73594
7.606e+02,3.73656
7.608e+02,3.7375
7.610e+02,3.73656
7.612e+02,3.73656
7.614e+02,3.7375
7.616e+02,3.7375
7.618e+02,3.7375
7.620e+02,3.73656
7.622e+02,3.7375
7.624e+02,3.73781
7.626e+02,3.7375
7.628e+02,3.7375
7.630e+02,3.73687
7.632e+02,3.73687
7.634e+02,3.73781
7.636e+02,3.73781
7.638e+02,3.73687
7.640e+02,3.73781
7.642e+02,3.73875
7.644e+02,3.73781
7.646e+02,3.73656
7.648e+02,3.73687
7.650e+02,3.78688
7.652e+02,3.80844
7.654e+02,3.80938
7.656e+02,3.80938
7.658e+02,3.81062
7.660e+02,3.81062
7.662e+02,3.81188
7.664e+02,3.81281
7.666e+02,3.81438
7.668e+02,3.81469
7.670e+02,3.815
7.672e+02,3.81563
7.674e+02,3.81563
7.676e+02,3.81563
7.678e+02,3.81656
7.680e+02,3.81656
7.682e+02,3.8175
7.684e+02,3.81813
7.686e+02,3.81813
7.688e+02,3.81906
7.690e+02,3.81906
7.692e+02,3.81844
7.694e+02,3.81906
7.696e+02,3.82
7.698e+02,3.82031
7.700e+02,3.81969
7.702e+02,3.82063
7.704e+02,3.82125
7.706e+02,3.8225
7.708e+02,3.8225
7.710e+02,3.8225
7.712e+02,3.8225
7.714e+02,3.82375
7.716e+02,3.825
7.718e+02,3.82563
7.720e+02,3.82656
7.722e+02,3.82656
7.724e+02,3.82688
7.726e+02,3.82719
7.728e+02,3.82688
7.730e+02,3.82656
7.732e+02,3.82688
7.734e+02,3.82719
7.736e+02,3.82781
7.738e+02,3.82656
7.740e+02,3.82656
7.742e+02,3.82781
7.744e+02,3.82719
7.746e+02,3.82844
7.748e+02,3.82875
7.750e+02,3.82906
7.752e+02,3.82906
7.754e+02,3.82969
7.756e+02,3.82938
7.758e+02,3.82938
7.760e+02,3.83094
7.762e+02,3.83125
7.764e+02,3.83156
7.766e+02,3.8325
7.768e+02,3.83188
7.770e+02,3.83188
7.772e+02,3.83188
7.774e+02,3.83125
7.776e+02,3.83188
7.778e+02,3.8325
7.780e+02,3.83312
7.782e+02,3.83219
7.784e+02,3.83312
7.786e+02,3.8325
7.788e+02,3.83219
7.790e+02,3.8325
7.792e+02,3.83312
7.794e+02,3.83406
7.796e+02,3.83406
7.798e+02,3.83438
7.800e+02,3.83438
7.802e+02,3.835
7.804e+02,3.835
7.806e+02,3.83531
7.808e+02,3.83688
7.810e+02,3.83656
7.812e+02,3.83688
7.814e+02,3.83563
7.816e+02,3.83625
7.818e+02,3.83656
7.820e+02,3.83625
7.822e+02,3.8375
7.824e+02,3.83781
7.826e+02,3.83844
7.828e+02,3.83875
7.830e+02,3.83906
7.832e+02,3.8375
7.834e+02,3.83906
7.836e+02,3.83906
7.838e+02,3.83875
7.840e+02,3.83906
7.842e+02,3.83906
7.844e+02,3.83719
7.846e+02,3.83875
7.848e+02,3.83875
7.850e+02,3.83906
7.852e+02,3.83937
7.854e+02,3.83875
7.856e+02,3.83969
7.858e+02,3.84031
7.860e+02,3.84063
7.862e+02,3.84094
7.864e+02,3.84187
7.866e+02,3.84094
7.868e+02,3.84031
7.870e+02,3.84031
7.872e+02,3.84156
7.874e+02,3.8425
7.876e+02,3.8425
7.878e+02,3.8425
7.880e+02,3.8425
7.882e+02,3.84375
7.884e+02,3.8425
7.886e+02,3.84156
7.888e+02,3.84187
7.890e+02,3.8425
7.892e+02,3.8425
7.894e+02,3.84406
7.896e+02,3.84375
7.898e+02,3.84437
7.900e+02,3.84375
7.902e+02,3.84375
7.904e+02,3.845
7.906e+02,3.84469
7.908e+02,3.84375
7.910e+02,3.845
7.912e+02,3.845
7.914e+02,3.84469
7.916e+02,3.84375
7.918e+02,3.84313
7.920e+02,3.84437
7.922e+02,3.84406
7.924e+02,3.84437
7.926e+02,3.845
7.928e+02,3.84594
7.930e+02,3.84563
7.932e+02,3.84531
7.934e+02,3.84531
7.936e+02,3.84563
7.938e+02,3.84531
7.940e+02,3.84563
7.942e+02,3.84563
7.944e+02,3.84531
7.946e+02,3.84625
7.948e+02,3.84656
7.950e+02,3.84594
7.952e+02,3.84563
7.954e+02,3.84625
7.956e+02,3.84625
7.958e+02,3.84656
7.960e+02,3.84594
7.962e+02,3.84688
7.964e+02,3.84688
7.966e+02,3.84688
7.968e+02,3.84781
7.970e+02,3.84719
7.972e+02,3.84813
7.974e+02,3.84844
7.976e+02,3.84906
7.978e+02,3.84844
7.980e+02,3.8475
7.982e+02,3.84781
7.984e+02,3.84625
7.986e+02,3.8475
7.988e+02,3.84844
7.990e+02,3.84906
7.992e+02,3.84969
7.994e+02,3.85
7.996e+02,3.85062
7.998e+02,3.84938
8.000e+02,3.84844
8.002e+02,3.84938
8.004e+02,3.84906
8.006e+02,3.84938
8.008e+02,3.85062
8.010e+02,3.85
8.012e+02,3.85
8.014e+02,3.84938
8.016e+02,3.84906
8.018e+02,3.84938
8.020e+02,3.84938
8.022e+02,3.85031
8.024e+02,3.85062
8.026e+02,3.85062
8.028e+02,3.85125
8.030e+02,3.85156
8.032e+02,3.85156
8.034e+02,3.85094
8.036e+02,3.85031
8.038e+02,3.85031
8.040e+02,3.85062
8.042e+02,3.85094
8.044e+02,3.85062
8.046e+02,3.85
8.048e+02,3.85062
8.050e+02,3.85094
8.052e+02,3.85125
8.054e+02,3.85219
8.056e+02,3.85125
8.058e+02,3.85156
8.060e+02,3.85125
8.062e+02,3.85156
8.064e+02,3.85188
8.066e+02,3.85188
8.068e+02,3.85188
8.070e+02,3.8525
8.072e+02,3.85219
8.074e+02,3.85188
8.076e+02,3.85188
8.078e+02,3.8525
8.080e+02,3.85219
8.082e+02,3.85312
8.084e+02,3.85312
8.086e+02,3.85375
8.088e+02,3.85438
8.090e+02,3.85438
8.092e+02,3.85438
8.094e+02,3.85469
8.096e+02,3.85469
8.098e+02,3.855
8.100e+02,3.85531
8.102e+02,3.855
8.104e+02,3.85469
8.106e+02,3.85438
8.108e+02,3.85469
8.110e+02,3.85438
8.112e+02,3.855
8.114e+02,3.85563
8.116e+02,3.85438
8.118e+02,3.85438
8.120e+02,3.855
8.122e+02,3.85469
8.124e+02,3.85469
8.126e+02,3.855
8.128e+02,3.85531
8.130e+02,3.85563
8.132e+02,3.855
8.134e+02,3.85469
8.136e+02,3.85469
8.138e+02,3.85469
8.140e+02,3.85375
8.142e+02,3.85438
8.144e+02,3.85344
8.146e+02,3.85344
8.148e+02,3.85438
8.150e+02,3.85594
8.152e+02,3.85594
8.154e+02,3.85469
8.156e+02,3.85531
8.158e+02,3.85531
8.160e+02,3.85563
8.162e+02,3.85531
8.164e+02,3.85469
8.166e+02,3.85531
8.168e+02,3.85625
8.170e+02,3.85625
8.172e+02,3.85563
8.174e+02,3.85469
8.176e+02,3.85469
8.178e+02,3.85438
8.180e+02,3.85438
8.182e+02,3.85344
8.184e+02,3.85469
8.186e+02,3.855
8.188e+02,3.855
8.190e+02,3.85438
8.192e+02,3.85438
8.194e+02,3.85438
8.196e+02,3.85594
8.198e+02,3.85563
8.200e+02,3.85438
8.202e+02,3.85438
8.204e+02,3.855
8.206e+02,3.85469
8.208e+02,3.855
8.210e+02,3.85563
8.212e+02,3.85531
8.214e+02,3.85469
8.216e+02,3.85531
8.218e+02,3.85531
8.220e+02,3.855
8.222e+02,3.85563
8.224e+02,3.85594
8.226e+02,3.85563
8.228e+02,3.85438
8.230e+02,3.85375
8.232e+02,3.85438
8.234e+02,3.85531
8.236e+02,3.85594
8.238e+02,3.85563
8.240e+02,3.85531
8.242e+02,3.85625
8.244e+02,3.85594
8.246e+02,3.85719
8.248e+02,3.85594
8.250e+02,3.85563
8.252e+02,3.85656
8.254e+02,3.855
8.256e+02,3.855
8.258e+02,3.85656
8.260e+02,3.85688
8.262e+02,3.85563
8.264e+02,3.85594
8.266e+02,3.85656
8.268e+02,3.85625
8.270e+02,3.85625
8.272e+02,3.85719
8.274e+02,3.85813
8.276e+02,3.85875
8.278e+02,3.85813
8.280e+02,3.85781
8.282e+02,3.85719
8.284e+02,3.85625
8.286e+02,3.85688
8.288e+02,3.85563
8.290e+02,3.85563
8.292e+02,3.85594
8.294e+02,3.85563
8.296e+02,3.85563
8.298e+02,3.85594
8.300e+02,3.85656
8.302e+02,3.8575
8.304e+02,3.8575
8.306e+02,3.85656
8.308e+02,3.85688
8.310e+02,3.85688
8.312e+02,3.85625
8.314e+02,3.85563
8.316e+02,3.85594
8.318e+02,3.85563
8.320e+02,3.85625
8.322e+02,3.85594
8.324e+02,3.85469
8.326e+02,3.85594
8.328e+02,3.85625
8.330e+02,3.85719
8.332e+02,3.85625
8.334e+02,3.85594
8.336e+02,3.85594
8.338e+02,3.85625
8.340e+02,3.85625
8.342e+02,3.85625
8.344e+02,3.85688
8.346e+02,3.85688
8.348e+02,3.8575
8.350e+02,3.85688
8.352e+02,3.85719
8.354e+02,3.85594
8.356e+02,3.85656
8.358e+02,3.85594
8.360e+02,3.85594
8.362e+02,3.85594
8.364e+02,3.85625
8.366e+02,3.85531
8.368e+02,3.85563
8.370e+02,3.85688
8.372e+02,3.85813
8.374e+02,3.85625
8.376e+02,3.85563
8.378e+02,3.85563
8.380e+02,3.85625
8.382e+02,3.85719
8.384e+02,3.85688
8.386e+02,3.85719
8.388e+02,3.85719
8.390e+02,3.85781
8.392e+02,3.85781
8.394e+02,3.85781
8.396e+02,3.85781
8.398e+02,3.8575
8.400e+02,3.85719
8.402e+02,3.85781
8.404e+02,3.8575
8.406e+02,3.85875
8.408e+02,3.85813
8.410e+02,3.85781
8.412e+02,3.8575
8.414e+02,3.85781
8.416e+02,3.85781
8.418e+02,3.8575
8.420e+02,3.8575
8.422e+02,3.85719
8.424e+02,3.85625
8.426e+02,3.85625
8.428e+02,3.85594
8.430e+02,3.85625
8.432e+02,3.85625
8.434e+02,3.85625
8.436e+02,3.85594
8.438e+02,3.85625
8.440e+02,3.85719
8.442e+02,3.85656
8.444e+02,3.85813
8.446e+02,3.8575
8.448e+02,3.85781
8.450e+02,3.85781
8.452e+02,3.85688
8.454e+02,3.85719
8.456e+02,3.85813
8.458e+02,3.85781
8.460e+02,3.85688
8.462e+02,3.85625
8.464e+02,3.85625
8.466e+02,3.85625
8.468e+02,3.85656
8.470e+02,3.85719
8.472e+02,3.85719
8.474e+02,3.85656
8.476e+02,3.85656
8.478e+02,3.85656
8.480e+02,3.85656
8.482e+02,3.85625
8.484e+02,3.85781
8.486e+02,3.85719
8.488e+02,3.85719
8.490e+02,3.8575
8.492e+02,3.85719
8.494e+02,3.85719
8.496e+02,3.85719
8.498e+02,3.85813
8.500e+02,3.85875
8.502e+02,3.85813
8.504e+02,3.85844
8.506e+02,3.85844
8.508e+02,3.85844
8.510e+02,3.85813
8.512e+02,3.85875
8.514e+02,3.85969
8.516e+02,3.86031
8.518e+02,3.86
8.520e+02,3.85906
8.522e+02,3.85875
8.524e+02,3.85875
8.526e+02,3.85875
8.528e+02,3.85969
8.530e+02,3.85844
8.532e+02,3.85844
8.534e+02,3.85875
8.536e+02,3.85906
8.538e+02,3.86
8.540e+02,3.85969
8.542e+02,3.85969
8.544e+02,3.85813
8.546e+02,3.86
8.548e+02,3.86063
8.550e+02,3.86
8.552e+02,3.85969
8.554e+02,3.85969
8.556e+02,3.85906
8.558e+02,3.86
8.560e+02,3.85969
8.562e+02,3.86
8.564e+02,3.86
8.566e+02,3.85906
8.568e+02,3.85781
8.570e+02,3.85844
8.572e+02,3.85969
8.574e+02,3.85969
8.576e+02,3.85969
8.578e+02,3.86
8.580e+02,3.86031
8.582e+02,3.86063
8.584e+02,3.86094
8.586e+02,3.86094
8.588e+02,3.85969
8.590e+02,3.86
8.592e+02,3.86031
8.594e+02,3.85969
8.596e+02,3.86031
8.598e+02,3.86031
8.600e+02,3.86063
8.602e+02,3.86156
8.604e+02,3.86125
8.606e+02,3.86094
8.608e+02,3.85969
8.610e+02,3.85906
8.612e+02,3.85969
8.614e+02,3.85844
8.616e+02,3.86
8.618e+02,3.86
8.620e+02,3.86063
8.622e+02,3.86156
8.624e+02,3.86094
8.626e+02,3.86125
8.628e+02,3.86187
8.630e+02,3.86156
8.632e+02,3.86125
8.634e+02,3.86125
8.636e+02,3.86219
8.638e+02,3.8625
8.640e+02,3.86187
8.642e+02,3.86156
8.644e+02,3.86156
8.646e+02,3.86156
8.648e+02,3.86094
8.650e+02,3.86063
8.652e+02,3.86063
8.654e+02,3.86125
8.656e+02,3.86094
8.658e+02,3.86156
8.660e+02,3.86156
8.662e+02,3.86063
8.664e+02,3.86125
8.666e+02,3.86063
8.668e+02,3.86094
8.670e+02,3.86156
8.672e+02,3.86219
8.674e+02,3.86094
8.676e+02,3.86094
8.678e+02,3.86063
8.680e+02,3.86094
8.682e+02,3.86125
8.684e+02,3.86125
8.686e+02,3.86094
8.688e+02,3.8625
8.690e+02,3.86219
8.692e+02,3.8625
8.694e+02,3.86187
8.696e+02,3.86187
8.698e+02,3.86156
8.700e+02,3.86063
8.702e+02,3.86
8.704e+02,3.86
8.706e+02,3.86031
8.708e+02,3.86031
8.710e+02,3.86156
8.712e+02,3.86187
8.714e+02,3.86187
8.716e+02,3.86187
8.718e+02,3.86187
8.720e+02,3.86094
8.722e+02,3.86219
8.724e+02,3.86187
8.726e+02,3.86125
8.728e+02,3.86094
8.730e+02,3.86125
8.732e+02,3.86125
8.734e+02,3.86125
8.736e+02,3.86156
8.738e+02,3.86187
8.740e+02,3.86219
8.742e+02,3.86156
8.744e+02,3.86125
8.746e+02,3.86094
8.748e+02,3.86219
8.750e+02,3.8625
8.752e+02,3.8625
8.754e+02,3.86187
8.756e+02,3.86187
8.758e+02,3.8625
8.760e+02,3.86219
8.762e+02,3.86187
8.764e+02,3.86281
8.766e+02,3.86187
8.768e+02,3.86125
8.770e+02,3.86156
8.772e+02,3.86187
8.774e+02,3.86125
8.776e+02,3.86156
8.778e+02,3.86219
8.780e+02,3.86125
8.782e+02,3.86187
8.784e+02,3.86219
8.786e+02,3.86156
8.788e+02,3.86187
8.790e+02,3.86281
8.792e+02,3.86219
8.794e+02,3.8625
8.796e+02,3.86219
8.798e+02,3.86281
8.800e+02,3.86156
8.802e+02,3.86156
8.804e+02,3.86219
8.806e+02,3.86344
8.808e+02,3.86219
8.810e+02,3.86187
8.812e+02,3.86313
8.814e+02,3.86344
8.816e+02,3.8625
8.818e+02,3.86281
8.820e+02,3.86187
8.822e+02,3.86219
8.824e+02,3.86187
8.826e+02,3.86219
8.828e+02,3.86281
8.830e+02,3.86187
8.832e+02,3.86219
8.834e+02,3.86219
8.836e+02,3.8625
8.838e+02,3.8625
8.840e+02,3.86375
8.842e+02,3.86375
8.844e+02,3.86344
8.846e+02,3.86313
8.848e+02,3.86313
8.850e+02,3.86313
8.852e+02,3.86281
8.854e+02,3.86375
8.856e+02,3.86375
8.858e+02,3.86344
8.860e+02,3.86375
8.862e+02,3.86406
8.864e+02,3.865
8.866e+02,3.86531
8.868e+02,3.86313
8.870e+02,3.86375
8.872e+02,3.86375
8.874e+02,3.86563
8.876e+02,3.86531
8.878e+02,3.86531
8.880e+02,3.86406
8.882e+02,3.86406
8.884e+02,3.865
8.886e+02,3.865
8.888e+02,3.86437
8.890e+02,3.86437
8.892e+02,3.86406
8.894e+02,3.86375
8.896e+02,3.86437
8.898e+02,3.86406
8.900e+02,3.86313
8.902e+02,3.86313
8.904e+02,3.86344
8.906e+02,3.86344
8.908e+02,3.86313
8.910e+02,3.86344
8.912e+02,3.86313
8.914e+02,3.86313
8.916e+02,3.8625
8.918e+02,3.86313
8.920e+02,3.86281
8.922e+02,3.86344
8.924e+02,3.86594
8.926e+02,3.86563
8.928e+02,3.86563
8.930e+02,3.86531
8.932e+02,3.86625
8.934e+02,3.86688
8.936e+02,3.86625
8.938e+02,3.86594
8.940e+02,3.86625
8.942e+02,3.86563
8.944e+02,3.865
8.946e+02,3.865
8.948e+02,3.86594
8.950e+02,3.86594
8.952e+02,3.86437
8.954e+02,3.86594
8.956e+02,3.86594
8.958e+02,3.86656
8.960e+02,3.86625
8.962e+02,3.865
8.964e+02,3.86563
8.966e+02,3.86563
8.968e+02,3.86406
8.970e+02,3.86406
8.972e+02,3.86437
8.974e+02,3.86313
8.976e+02,3.86406
8.978e+02,3.86531
8.980e+02,3.86594
8.982e+02,3.86656
8.984e+02,3.86625
8.986e+02,3.86656
8.988e+02,3.86656
8.990e+02,3.86563
8.992e+02,3.86437
8.994e+02,3.86531
8.996e+02,3.86531
8.998e+02,3.86531
9.000e+02,3.86563
9.002e+02,3.86594
9.004e+02,3.86563
9.006e+02,3.86531
9.008e+02,3.86531
9.010e+02,3.865
9.012e+02,3.86406
9.014e+02,3.86531
9.016e+02,3.86531
9.018e+02,3.865
9.020e+02,3.86406
9.022e+02,3.86437
9.024e+02,3.86406
9.026e+02,3.865
9.028e+02,3.86594
9.030e+02,3.86406
9.032e+02,3.86406
9.034e+02,3.86437
9.036e+02,3.865
9.038e+02,3.865
9.040e+02,3.86531
9.042e+02,3.86313
9.044e+02,3.86437
9.046e+02,3.86406
9.048e+02,3.86406
9.050e+02,3.86594
9.052e+02,3.86437
9.054e+02,3.86406
9.056e+02,3.865
9.058e+02,3.865
9.060e+02,3.86531
9.062e+02,3.86531
9.064e+02,3.86406
9.066e+02,3.86531
9.068e+02,3.86531
9.070e+02,3.86531
9.072e+02,3.86531
9.074e+02,3.86437
9.076e+02,3.86531
9.078e+02,3.86531
9.080e+02,3.86563
9.082e+02,3.86594
9.084e+02,3.86563
9.086e+02,3.86563
9.088e+02,3.86437
9.090e+02,3.86406
9.092e+02,3.865
9.094e+02,3.86563
9.096e+02,3.86531
9.098e+02,3.86594
9.100e+02,3.86625
9.102e+02,3.86563
9.104e+02,3.86625
9.106e+02,3.86688
9.108e+02,3.86563
9.110e+02,3.86344
9.112e+02,3.86406
9.114e+02,3.86375
9.116e+02,3.86531
9.118e+02,3.86531
9.120e+02,3.86531
9.122e+02,3.86437
9.124e+02,3.86563
9.126e+02,3.86625
9.128e+02,3.86563
9.130e+02,3.86563
9.132e+02,3.86594
9.134e+02,3.86437
9.136e+02,3.86688
9.138e+02,3.86688
9.140e+02,3.86656
9.142e+02,3.86656
9.144e+02,3.86656
9.146e+02,3.86563
9.148e+02,3.86594
9.150e+02,3.8675
9.152e+02,3.8675
9.154e+02,3.86688
9.156e+02,3.8675
9.158e+02,3.86781
9.160e+02,3.86719
9.162e+02,3.86688
9.164e+02,3.86625
9.166e+02,3.86656
9.168e+02,3.86688
9.170e+02,3.86594
9.172e+02,3.86625
9.174e+02,3.86625
9.176e+02,3.86594
9.178e+02,3.86563
9.180e+02,3.86594
9.182e+02,3.86656
9.184e+02,3.86563
9.186e+02,3.86531
9.188e+02,3.86406
9.190e+02,3.86406
9.192e+02,3.86437
9.194e+02,3.86406
9.196e+02,3.86375
9.198e+02,3.86406
9.200e+02,3.86437
9.202e+02,3.86563
9.204e+02,3.86594
9.206e+02,3.86563
9.208e+02,3.86563
9.210e+02,3.86594
9.212e+02,3.86594
9.214e+02,3.86688
9.216e+02,3.86625
9.218e+02,3.86594
9.220e+02,3.86656
9.222e+02,3.8675
9.224e+02,3.86625
9.226e+02,3.865
9.228e+02,3.86437
9.230e+02,3.86531
9.232e+02,3.86531
9.234e+02,3.86594
9.236e+02,3.86594
9.238e+02,3.86688
9.240e+02,3.86625
9.242e+02,3.86625
9.244e+02,3.86563
9.246e+02,3.86531
9.248e+02,3.86563
9.250e+02,3.86594
9.252e+02,3.86531
9.254e+02,3.86594
9.256e+02,3.86656
9.258e+02,3.86656
9.260e+02,3.8675
9.262e+02,3.86625
9.264e+02,3.86594
9.266e+02,3.86688
9.268e+02,3.86656
9.270e+02,3.86688
9.272e+02,3.86719
9.274e+02,3.86625
9.276e+02,3.86656
9.278e+02,3.86688
9.280e+02,3.86688
9.282e+02,3.86719
9.284e+02,3.86625
9.286e+02,3.86563
9.288e+02,3.86656
9.290e+02,3.86656
9.292e+02,3.86688
9.294e+02,3.86688
9.296e+02,3.8675
9.298e+02,3.8675
9.300e+02,3.86563
9.302e+02,3.86656
9.304e+02,3.86594
9.306e+02,3.86719
9.308e+02,3.86719
9.310e+02,3.86719
9.312e+02,3.86719
9.314e+02,3.8675
9.316e+02,3.8675
9.318e+02,3.8675
9.320e+02,3.86813
9.322e+02,3.86906
9.324e+02,3.86781
9.326e+02,3.8675
9.328e+02,3.86719
9.330e+02,3.86719
9.332e+02,3.86875
9.334e+02,3.86781
9.336e+02,3.86656
9.338e+02,3.86781
9.340e+02,3.86719
9.342e+02,3.8675
9.344e+02,3.8675
9.346e+02,3.86656
9.348e+02,3.86719
9.350e+02,3.8675
9.352e+02,3.86813
9.354e+02,3.86656
9.356e+02,3.86656
9.358e+02,3.86563
9.360e+02,3.86625
9.362e+02,3.8675
9.364e+02,3.86781
9.366e+02,3.86719
9.368e+02,3.86656
9.370e+02,3.86656
9.372e+02,3.86625
9.374e+02,3.86594
9.376e+02,3.86688
9.378e+02,3.86719
9.380e+02,3.86688
9.382e+02,3.86656
9.384e+02,3.86656
9.386e+02,3.86688
9.388e+02,3.86719
9.390e+02,3.86719
9.392e+02,3.8675
9.394e+02,3.86656
9.396e+02,3.86625
9.398e+02,3.86656
9.400e+02,3.86594
9.402e+02,3.86656
9.404e+02,3.86719
9.406e+02,3.86688
9.408e+02,3.86781
9.410e+02,3.8675
9.412e+02,3.86844
9.414e+02,3.86906
9.416e+02,3.86844
9.418e+02,3.86844
9.420e+02,3.8675
9.422e+02,3.8675
9.424e+02,3.86594
9.426e+02,3.86656
9.428e+02,3.86625
9.430e+02,3.86625
9.432e+02,3.86656
9.434e+02,3.86625
9.436e+02,3.86656
9.438e+02,3.86688
9.440e+02,3.86656
9.442e+02,3.86625
9.444e+02,3.86625
9.446e+02,3.86719
9.448e+02,3.86688
9.450e+02,3.86625
9.452e+02,3.86688
9.454e+02,3.86656
9.456e+02,3.86656
9.458e+02,3.86781
9.460e+02,3.86719
9.462e+02,3.86656
9.464e+02,3.86688
9.466e+02,3.85656
9.468e+02,3.81188
9.470e+02,3.7875
9.472e+02,3.78812
9.474e+02,3.78781
9.476e+02,3.78625
9.478e+02,3.78531
9.480e+02,3.78688
9.482e+02,3.78688
9.484e+02,3.78688
9.486e+02,3.78719
9.488e+02,3.78719
9.490e+02,3.78625
9.492e+02,3.78594
9.494e+02,3.78406
9.496e+02,3.78344
9.498e+02,3.78344
9.500e+02,3.78281
9.502e+02,3.78313
9.504e+02,3.78281
9.506e+02,3.78219
9.508e+02,3.78281
9.510e+02,3.78281
9.512e+02,3.7825
9.514e+02,3.78187
9.516e+02,3.78063
9.518e+02,3.78187
9.520e+02,3.78125
9.522e+02,3.78063
9.524e+02,3.78063
9.526e+02,3.78031
9.528e+02,3.78031
9.530e+02,3.77875
9.532e+02,3.77844
9.534e+02,3.77875
9.536e+02,3.77813
9.538e+02,3.77719
9.540e+02,3.77719
9.542e+02,3.77813
9.544e+02,3.77656
9.546e+02,3.77656
9.548e+02,3.77656
9.550e+02,3.77656
9.552e+02,3.77625
9.554e+02,3.77563
9.556e+02,3.77313
9.558e+02,3.77344
9.560e+02,3.77375
9.562e+02,3.77375
9.564e+02,3.77313
9.566e+02,3.77219
9.568e+02,3.77094
9.570e+02,3.77062
9.572e+02,3.77031
9.574e+02,3.77031
9.576e+02,3.76938
9.578e+02,3.77
9.580e+02,3.76969
9.582e+02,3.76812
9.584e+02,3.76844
9.586e+02,3.76812
9.588e+02,3.76781
9.590e+02,3.76656
9.592e+02,3.76719
9.594e+02,3.76719
9.596e+02,3.76688
9.598e+02,3.76531
9.600e+02,3.76594
9.602e+02,3.76656
9.604e+02,3.76656
9.606e+02,3.76656
9.608e+02,3.76594
9.610e+02,3.76594
9.612e+02,3.76469
9.614e+02,3.76438
9.616e+02,3.76313
9.618e+02,3.76281
9.620e+02,3.76281
9.622e+02,3.76313
9.624e+02,3.76281
9.626e+02,3.76406
9.628e+02,3.76344
9.630e+02,3.76281
9.632e+02,3.76187
9.634e+02,3.76
9.636e+02,3.76063
9.638e+02,3.76063
9.640e+02,3.76187
9.642e+02,3.76094
9.644e+02,3.75969
9.646e+02,3.75875
9.648e+02,3.75813
9.650e+02,3.75813
9.652e+02,3.7575
9.654e+02,3.75813
9.656e+02,3.75719
9.658e+02,3.75719
9.660e+02,3.75687
9.662e+02,3.7575
9.664e+02,3.75656
9.666e+02,3.75563
9.668e+02,3.75719
9.670e+02,3.7575
9.672e+02,3.75781
9.674e+02,3.75781
9.676e+02,3.75625
9.678e+02,3.75656
9.680e+02,3.75563
9.682e+02,3.75469
9.684e+02,3.75438
9.686e+02,3.75438
9.688e+02,3.755
9.690e+02,3.75531
9.692e+02,3.755
9.694e+02,3.75469
9.696e+02,3.75438
9.698e+02,3.75344
9.700e+02,3.7525
9.702e+02,3.75156
9.704e+02,3.75281
9.706e+02,3.75281
9.708e+02,3.75188
9.710e+02,3.75281
9.712e+02,3.75188
9.714e+02,3.75156
9.716e+02,3.75125
9.718e+02,3.75188
9.720e+02,3.75062
9.722e+02,3.75062
9.724e+02,3.74969
9.726e+02,3.75062
9.728e+02,3.75031
9.730e+02,3.75
9.732e+02,3.75094
9.734e+02,3.75094
9.736e+02,3.75156
9.738e+02,3.75094
9.740e+02,3.75094
9.742e+02,3.75094
9.744e+02,3.75062
9.746e+02,3.75031
9.748e+02,3.75062
9.750e+02,3.75062
9.752e+02,3.75125
9.754e+02,3.75125
9.756e+02,3.75031
9.758e+02,3.74969
9.760e+02,3.74969
9.762e+02,3.74906
9.764e+02,3.74812
9.766e+02,3.74688
9.768e+02,3.7475
9.770e+02,3.74688
9.772e+02,3.7475
9.774e+02,3.7475
9.776e+02,3.74688
9.778e+02,3.74688
9.780e+02,3.74719
9.782e+02,3.74719
9.784e+02,3.74719
9.786e+02,3.74812
9.788e+02,3.74719
9.790e+02,3.7475
9.792e+02,3.74719
9.794e+02,3.74625
9.796e+02,3.74531
9.798e+02,3.74562
9.800e+02,3.74625
9.802e+02,3.74625
9.804e+02,3.74531
9.806e+02,3.74594
9.808e+02,3.74656
9.810e+02,3.74812
9.812e+02,3.7475
9.814e+02,3.74656
9.816e+02,3.74656
9.818e+02,3.74531
9.820e+02,3.74562
9.822e+02,3.74438
9.824e+02,3.74375
9.826e+02,3.74344
9.828e+02,3.74219
9.830e+02,3.74188
9.832e+02,3.74281
9.834e+02,3.74375
9.836e+02,3.74406
9.838e+02,3.74313
9.840e+02,3.74156
9.842e+02,3.74188
9.844e+02,3.74313
9.846e+02,3.74344
9.848e+02,3.74313
9.850e+02,3.74406
9.852e+02,3.74344
9.854e+02,3.74344
9.856e+02,3.74344
9.858e+02,3.74188
9.860e+02,3.74094
9.862e+02,3.74188
9.864e+02,3.74156
9.866e+02,3.74219
9.868e+02,3.74281
9.870e+02,3.74375
9.872e+02,3.74313
9.874e+02,3.74219
9.876e+02,3.74219
9.878e+02,3.74156
9.880e+02,3.74063
9.882e+02,3.74031
9.884e+02,3.74
9.886e+02,3.74063
9.888e+02,3.74063
9.890e+02,3.73969
9.892e+02,3.73969
9.894e+02,3.74031
9.896e+02,3.74063
9.898e+02,3.73937
9.900e+02,3.73906
9.902e+02,3.73937
9.904e+02,3.73906
9.906e+02,3.73906
9.908e+02,3.73906
9.910e+02,3.73937
9.912e+02,3.73875
9.914e+02,3.73969
9.916e+02,3.73875
9.918e+02,3.73875
9.920e+02,3.73906
9.922e+02,3.73906
9.924e+02,3.73937
9.926e+02,3.73813
9.928e+02,3.73813
9.930e+02,3.73875
9.932e+02,3.73844
9.934e+02,3.73813
9.936e+02,3.7375
9.938e+02,3.73781
9.940e+02,3.73781
9.942e+02,3.73844
9.944e+02,3.73813
9.946e+02,3.73781
9.948e+02,3.73781
9.950e+02,3.73813
9.952e+02,3.73875
9.954e+02,3.73844
9.956e+02,3.7375
9.958e+02,3.73813
9.960e+02,3.73875
9.962e+02,3.73937
9.964e+02,3.74031
9.966e+02,3.74
9.968e+02,3.74
9.970e+02,3.73937
9.972e+02,3.73813
9.974e+02,3.73687
9.976e+02,3.73687
9.978e+02,3.73781
9.980e+02,3.73813
9.982e+02,3.73687
9.984e+02,3.7375
9.986e+02,3.73594
9.988e+02,3.73563
9.990e+02,3.73563
9.992e+02,3.73563
9.994e+02,3.73531
9.996e+02,3.73531
9.998e+02,3.73469

